Sample	2mm tape 2
date	08/01/2025
	
Temperature (K)	77.00
Angle (deg.)	180.000000
field / T	0.040000
	
		
Approx. trace time (s)	60.0	
		
Current / A	V1  -sample/ uV	time/s
0.003004	-0.908011	0.000000
0.002879	-0.904260	0.046000
0.003028	-0.895842	0.092000
0.002843	-0.844806	0.247000
0.002747	-0.827357	0.293000
0.002539	-0.793571	0.339000
0.002395	-0.783305	0.494000
0.002437	-0.761784	0.540000
0.002807	-0.741844	0.587000
0.002938	-0.727165	0.633000
0.002903	-0.732997	0.679000
0.003070	-0.765143	0.725000
0.024969	-0.797367	0.771000
0.054876	-0.818241	0.817000
0.085311	-0.828471	0.864000
0.117207	-0.830010	0.910000
0.147831	-0.822483	0.956000
0.178824	-0.802594	1.003000
0.209616	-0.782723	1.049000
0.241313	-0.761713	1.095000
0.272341	-0.747925	1.142000
0.375809	-0.733911	1.187000
0.406290	-0.685882	1.344000
0.437253	-0.648056	1.390000
0.540465	-0.663206	1.437000
0.571577	-0.690298	1.591000
0.602760	-0.707141	1.637000
0.633675	-0.703200	1.684000
0.664060	-0.690392	1.730000
0.694838	-0.664620	1.776000
0.725343	-0.635723	1.823000
0.756899	-0.607377	1.869000
0.788104	-0.575391	1.916000
0.819456	-0.546707	1.962000
0.850304	-0.522171	2.009000
0.881688	-0.497888	2.055000
0.912690	-0.480813	2.102000
0.943838	-0.463285	2.148000
0.972914	-0.446722	2.194000
1.003649	-0.437126	2.240000
1.152003	-0.425242	2.286000
1.269701	-0.459500	2.509000
1.301660	-0.478919	2.686000
1.332122	-0.493700	2.732000
1.363484	-0.510160	2.778000
1.394360	-0.526016	2.825000
1.425636	-0.537412	2.871000
1.456408	-0.549728	2.917000
1.486913	-0.557508	2.963000
1.516505	-0.568568	3.009000
1.547562	-0.579423	3.055000
1.578711	-0.588570	3.102000
1.609481	-0.598865	3.147000
1.640490	-0.608595	3.194000
1.671670	-0.611928	3.240000
1.702705	-0.615752	3.287000
1.733760	-0.606582	3.333000
1.979474	-0.593665	3.379000
2.010636	-0.572162	3.748000
2.041311	-0.573675	3.794000
2.071308	-0.567814	3.840000
2.102197	-0.559335	3.886000
2.133248	-0.550593	3.933000
2.163729	-0.540656	3.978000
2.194359	-0.534373	4.024000
2.225687	-0.529644	4.069000
2.256969	-0.539552	4.117000
2.287685	-0.559989	4.163000
2.317369	-0.581695	4.209000
2.348584	-0.607262	4.255000
2.379138	-0.632942	4.302000
2.410241	-0.645557	4.348000
2.440614	-0.651152	4.394000
2.472576	-0.655120	4.441000
2.576444	-0.652850	4.486000
2.608057	-0.626358	4.643000
2.638653	-0.642317	4.689000
2.883415	-0.688500	4.736000
2.912891	-0.695175	5.103000
2.945082	-0.707598	5.150000
2.975447	-0.718712	5.196000
3.007017	-0.726820	5.243000
3.037369	-0.738463	5.289000
3.069333	-0.757489	5.335000
3.100512	-0.781589	5.382000
3.131265	-0.803272	5.428000
3.160916	-0.803437	5.474000
3.191899	-0.788201	5.521000
3.304089	-0.767294	5.567000
3.335492	-0.691786	5.734000
3.365965	-0.665038	5.781000
3.472470	-0.616427	5.827000
3.501696	-0.615657	5.985000
3.533041	-0.619928	6.032000
3.563215	-0.626252	6.078000
3.594836	-0.632730	6.125000
3.625295	-0.639503	6.171000
3.656997	-0.642941	6.218000
3.688199	-0.648681	6.264000
3.719248	-0.656817	6.310000
3.749893	-0.658380	6.356000
3.780710	-0.662744	6.402000
3.811076	-0.663598	6.449000
3.841584	-0.663360	6.495000
3.872243	-0.663381	6.541000
3.903796	-0.663504	6.588000
3.935207	-0.667098	6.633000
4.038468	-0.669110	6.680000
4.070053	-0.699332	6.835000
4.099754	-0.710446	6.882000
4.205001	-0.745927	6.928000
4.235402	-0.731112	7.085000
4.266260	-0.469987	7.132000
4.297352	-0.598706	7.176000
4.327722	-0.707014	7.222000
4.358407	-0.652316	7.268000
4.388573	-0.640262	7.314000
4.419165	-0.619686	7.360000
4.449977	-0.605946	7.407000
4.480852	-0.591777	7.453000
4.511923	-0.569192	7.499000
4.543360	-0.545703	7.545000
4.574073	-0.522670	7.592000
4.605392	-0.503365	7.638000
4.636195	-0.488552	7.685000
4.666618	-0.477582	7.731000
4.770615	-0.470008	7.777000
4.801412	-0.432351	7.934000
4.832835	-0.417743	7.981000
4.938325	-0.422361	8.027000
4.969470	-0.424024	8.185000
5.000642	-0.418432	8.230000
5.031362	-0.417785	8.277000
5.061179	-0.409416	8.323000
5.092010	-0.394624	8.369000
5.122669	-0.381762	8.416000
5.153249	-0.372915	8.462000
5.184281	-0.375627	8.508000
5.215845	-0.384861	8.555000
5.246899	-0.398002	8.601000
5.278329	-0.415010	8.647000
5.309307	-0.426436	8.694000
5.340413	-0.438695	8.740000
5.370879	-0.444806	8.787000
5.401050	-0.444537	8.833000
5.646049	-0.440982	8.879000
5.677072	-0.441275	9.248000
5.708235	-0.433864	9.294000
5.738978	-0.432250	9.339000
5.769457	-0.427614	9.385000
5.800453	-0.423912	9.431000
5.831515	-0.424351	9.477000
5.861019	-0.421260	9.522000
5.890311	-0.424132	9.568000
5.921075	-0.425432	9.613000
5.952187	-0.426168	9.659000
5.983248	-0.430835	9.705000
6.013063	-0.436981	9.750000
6.044179	-0.445434	9.796000
6.073745	-0.452764	9.842000
6.103948	-0.462234	9.887000
6.134001	-0.470968	9.933000
6.238567	-0.476617	9.979000
6.270121	-0.508390	10.135000
6.301219	-0.519194	10.182000
6.547970	-0.566499	10.228000
6.579199	-0.560497	10.598000
6.609251	-0.552195	10.644000
6.640279	-0.544651	10.690000
6.669667	-0.538131	10.737000
6.701385	-0.518296	10.783000
6.731978	-0.495438	10.829000
6.763441	-0.479665	10.875000
6.794589	-0.467215	10.922000
6.825183	-0.456130	10.967000
6.855775	-0.458792	11.013000
6.971943	-0.459914	11.059000
7.001959	-0.457815	11.233000
7.032066	-0.453914	11.279000
7.138566	-0.453343	11.324000
7.169941	-0.450580	11.485000
7.199494	-0.443882	11.531000
7.231855	-0.435888	11.577000
7.262874	-0.431959	11.624000
7.294251	-0.420885	11.670000
7.324713	-0.415813	11.717000
7.355468	-0.407849	11.763000
7.386230	-0.385340	11.809000
7.416699	-0.366908	11.856000
7.447786	-0.351307	11.902000
7.478391	-0.342708	11.948000
7.509177	-0.332479	11.994000
7.539805	-0.330412	12.040000
7.571620	-0.329817	12.086000
7.602316	-0.342159	12.133000
7.706065	-0.347657	12.179000
7.736443	-0.386152	12.335000
7.767372	-0.394386	12.381000
7.872924	-0.419823	12.428000
7.903535	-0.419638	12.586000
7.935353	-0.416247	12.632000
7.965895	-0.415009	12.678000
7.996707	-0.415748	12.724000
8.026230	-0.420844	12.770000
8.057487	-0.419523	12.817000
8.088201	-0.419638	12.863000
8.119533	-0.422557	12.909000
8.150398	-0.415571	12.956000
8.181804	-0.418338	13.002000
8.213230	-0.426311	13.048000
8.243896	-0.433048	13.095000
8.275062	-0.437810	13.141000
8.305697	-0.437747	13.187000
8.336034	-0.439120	13.233000
8.439407	-0.442425	13.280000
8.470434	-0.432944	13.435000
8.501210	-0.418129	13.482000
8.607353	-0.386369	13.528000
8.638364	-0.378175	13.686000
8.669315	-0.377624	13.732000
8.699841	-0.382292	13.779000
8.729608	-0.393115	13.825000
8.760804	-0.406288	13.871000
8.791944	-0.410976	13.918000
8.822631	-0.410851	13.963000
8.853147	-0.407567	14.009000
8.884160	-0.391982	14.055000
8.915759	-0.386669	14.102000
8.946377	-0.382073	14.148000
8.976246	-0.383299	14.194000
9.006750	-0.384422	14.240000
9.038019	-0.392802	14.287000
9.069203	-0.392533	14.333000
9.314795	-0.396451	14.379000
9.345829	-0.295750	14.748000
9.376778	-0.303712	14.794000
9.407904	-0.315898	14.840000
9.438065	-0.331243	14.887000
9.468940	-0.342056	14.933000
9.499931	-0.344603	14.979000
9.529910	-0.340006	15.024000
9.560715	-0.344572	15.071000
9.591911	-0.357014	15.117000
9.623062	-0.386942	15.163000
9.653812	-0.412238	15.210000
9.684731	-0.443502	15.256000
9.716286	-0.476815	15.303000
9.747642	-0.506786	15.349000
9.778277	-0.537403	15.396000
9.807897	-0.567324	15.442000
9.911899	-0.589594	15.489000
9.943213	-0.641129	15.644000
9.974666	-0.646538	15.691000
10.219565	-0.661546	15.737000
10.250156	-0.655304	16.104000
10.280244	-0.646054	16.150000
10.311509	-0.636741	16.196000
10.342341	-0.621270	16.242000
10.373103	-0.608374	16.289000
10.403323	-0.595808	16.335000
10.434941	-0.577495	16.382000
10.466017	-0.552288	16.428000
10.497176	-0.523639	16.474000
10.528026	-0.476248	16.521000
10.638341	-0.438434	16.566000
10.670014	-0.370938	16.733000
10.701417	-0.354486	16.780000
10.807326	-0.391483	16.827000
10.838149	-0.388437	16.986000
10.868878	-0.384610	17.032000
10.900429	-0.373839	17.079000
10.931277	-0.365054	17.125000
10.961626	-0.357126	17.171000
10.991490	-0.346532	17.217000
11.023251	-0.339755	17.264000
11.053616	-0.333422	17.310000
11.085019	-0.331156	17.356000
11.115432	-0.325876	17.402000
11.147068	-0.325887	17.448000
11.177945	-0.327322	17.494000
11.209299	-0.325157	17.541000
11.239064	-0.321946	17.587000
11.270742	-0.317289	17.634000
11.374213	-0.314699	17.681000
11.405383	-0.308544	17.837000
11.436558	-0.304450	17.883000
11.541181	-0.280404	17.929000
11.572602	-0.269331	18.086000
11.602526	-0.257698	18.132000
11.633998	-0.244625	18.179000
11.664307	-0.231655	18.225000
11.695480	-0.222279	18.271000
11.726060	-0.214214	18.317000
11.756796	-0.198837	18.364000
11.788164	-0.178336	18.410000
11.818258	-0.169220	18.456000
11.850074	-0.166273	18.502000
11.881047	-0.167303	18.548000
11.911786	-0.171814	18.595000
11.940744	-0.180660	18.641000
11.972577	-0.189284	18.687000
12.003106	-0.197370	18.733000
12.107996	-0.208755	18.780000
12.138755	-0.244551	18.935000
12.169573	-0.256471	18.981000
12.274443	-0.296913	19.028000
12.303895	-0.307882	19.186000
12.335871	-0.315981	19.232000
12.366730	-0.324037	19.278000
12.398069	-0.324486	19.325000
12.428533	-0.324360	19.371000
12.460069	-0.317134	19.417000
12.491522	-0.312279	19.464000
12.522736	-0.302568	19.510000
12.553277	-0.294386	19.557000
12.583926	-0.284074	19.603000
12.614743	-0.275183	19.650000
12.645191	-0.271795	19.696000
12.675966	-0.265973	19.742000
12.706926	-0.261222	19.788000
12.738634	-0.260162	19.835000
12.983566	-0.255620	19.881000
13.014038	-0.191317	20.249000
13.046321	-0.185825	20.296000
13.076614	-0.183534	20.342000
13.107653	-0.184690	20.388000
13.136846	-0.189068	20.434000
13.167891	-0.193526	20.480000
13.198894	-0.200067	20.527000
13.230238	-0.207360	20.573000
13.260778	-0.210382	20.619000
13.291952	-0.204870	20.665000
13.323757	-0.200787	20.711000
13.353772	-0.204037	20.758000
13.384510	-0.209871	20.804000
13.414821	-0.225080	20.850000
13.445583	-0.244490	20.897000
13.476553	-0.262502	20.943000
13.581476	-0.271339	20.989000
13.612006	-0.262074	21.146000
13.643311	-0.251138	21.192000
13.888532	-0.248817	21.238000
13.919896	-0.246736	21.606000
13.950162	-0.240933	21.652000
13.980983	-0.233484	21.699000
14.011013	-0.221182	21.745000
14.042399	-0.204221	21.790000
14.073146	-0.186511	21.837000
14.104072	-0.165196	21.884000
14.135278	-0.124488	21.930000
14.166844	-0.088775	21.977000
14.197290	-0.063657	22.023000
14.307145	-0.048865	22.069000
14.338165	-0.045697	22.234000
14.369205	-0.054773	22.280000
14.475307	-0.101328	22.327000
14.506484	-0.113904	22.486000
14.536611	-0.128093	22.532000
14.566701	-0.141047	22.579000
14.597461	-0.154059	22.624000
14.628274	-0.165144	22.670000
14.659319	-0.177220	22.717000
14.690464	-0.190178	22.763000
14.721842	-0.199732	22.809000
14.752865	-0.209638	22.856000
14.783809	-0.217171	22.902000
14.815064	-0.229371	22.949000
14.845350	-0.238820	22.995000
14.875579	-0.245507	23.041000
14.906371	-0.243090	23.088000
14.937777	-0.249190	23.134000
15.042964	-0.249848	23.180000
15.074262	-0.257862	23.337000
15.105368	-0.261823	23.383000
15.209024	-0.226255	23.429000
15.239397	-0.216360	23.586000
15.269838	-0.202585	23.632000
15.301469	-0.184740	23.679000
15.332837	-0.169070	23.725000
15.364011	-0.155944	23.771000
15.394947	-0.149413	23.818000
15.426727	-0.148818	23.864000
15.457796	-0.154518	23.911000
15.488229	-0.165229	23.957000
15.517878	-0.179156	24.003000
15.548297	-0.194605	24.049000
15.579581	-0.212661	24.095000
15.610825	-0.231340	24.142000
15.641709	-0.250045	24.188000
15.672746	-0.269297	24.235000
15.777154	-0.290714	24.281000
15.807968	-0.332383	24.437000
15.838638	-0.339090	24.483000
15.942491	-0.353855	24.530000
15.973768	-0.345851	24.686000
16.004598	-0.339268	24.732000
16.036000	-0.337916	24.779000
16.066917	-0.327489	24.825000
16.098189	-0.313726	24.872000
16.128925	-0.299316	24.918000
16.159420	-0.294554	24.964000
16.190043	-0.294502	25.011000
16.219424	-0.296455	25.057000
16.251771	-0.301707	25.103000
16.282709	-0.310949	25.149000
16.314226	-0.321667	25.196000
16.344394	-0.330402	25.242000
16.376276	-0.342345	25.288000
16.407200	-0.360353	25.335000
16.652108	-0.379996	25.381000
16.682364	-0.534039	25.749000
16.713194	-0.528006	25.795000
16.743597	-0.498838	25.841000
16.774928	-0.468230	25.888000
16.806256	-0.437614	25.934000
16.837184	-0.396141	25.981000
16.868424	-0.360523	26.027000
16.899020	-0.329922	26.073000
16.929214	-0.315179	26.119000
16.961022	-0.312363	26.165000
16.991465	-0.308808	26.212000
17.021865	-0.301707	26.258000
17.052188	-0.283783	26.305000
17.084184	-0.257552	26.351000
17.114727	-0.231310	26.398000
17.146193	-0.220925	26.443000
17.250634	-0.204246	26.490000
17.281372	-0.193108	26.647000
17.313258	-0.196973	26.693000
17.558116	-0.075402	26.740000
17.588149	-0.058638	27.107000
17.618418	-0.032847	27.153000
17.648816	0.003314	27.200000
17.680781	0.027715	27.246000
17.711809	0.042840	27.292000
17.743336	0.052781	27.339000
17.773582	0.053945	27.385000
17.804850	0.054650	27.431000
17.835695	0.052189	27.477000
17.865149	0.047323	27.524000
17.976052	0.040397	27.570000
18.006462	0.021123	27.735000
18.037528	0.017442	27.781000
18.143106	-0.010167	27.827000
18.173654	-0.021408	27.986000
18.205152	-0.035893	28.032000
18.235427	-0.050304	28.078000
18.267194	-0.068597	28.125000
18.298175	-0.089099	28.171000
18.328971	-0.109955	28.218000
18.359712	-0.128083	28.264000
18.391485	-0.142110	28.311000
18.422259	-0.156905	28.357000
18.452284	-0.166758	28.403000
18.482242	-0.176980	28.449000
18.513679	-0.190168	28.496000
18.544795	-0.190803	28.542000
18.576245	-0.191127	28.588000
18.607139	-0.189678	28.635000
18.710790	-0.189521	28.680000
18.741968	-0.163571	28.837000
18.772977	-0.142653	28.883000
18.876663	-0.098705	28.929000
18.908228	-0.098162	29.086000
18.939239	-0.092496	29.133000
18.970073	-0.084993	29.178000
19.001179	-0.081348	29.225000
19.032259	-0.082410	29.271000
19.063148	-0.085453	29.318000
19.093453	-0.086380	29.364000
19.124249	-0.078857	29.411000
19.154983	-0.065419	29.457000
19.185081	-0.057295	29.503000
19.216638	-0.050541	29.549000
19.247722	-0.044001	29.595000
19.278609	-0.035666	29.642000
19.309601	-0.035113	29.688000
19.340926	-0.034280	29.734000
19.444286	-0.034831	29.780000
19.474672	0.011104	29.937000
19.506274	0.039203	29.983000
19.611128	0.152790	30.029000
19.642127	0.187636	30.186000
19.672855	0.218932	30.233000
19.704257	0.248717	30.279000
19.735193	0.281180	30.325000
19.764907	0.312273	30.372000
19.795141	0.343650	30.418000
19.826743	0.363642	30.464000
19.858038	0.381467	30.511000
19.889481	0.416112	30.557000
19.920111	0.474248	30.604000
19.951580	0.507202	30.650000
19.982385	0.503967	30.696000
20.012965	0.488398	30.742000
20.043215	0.475465	30.788000
20.073432	0.468458	30.835000
20.318360	0.462470	30.880000
20.349335	0.316071	31.248000
20.380002	0.299155	31.294000
20.411602	0.274468	31.341000
20.442749	0.252070	31.387000
20.474013	0.227192	31.434000
20.503975	0.197647	31.480000
20.536042	0.165662	31.525000
20.565921	0.135771	31.571000
20.596679	0.108533	31.618000
20.626487	0.077655	31.665000
20.658126	0.047925	31.711000
20.688721	0.020499	31.756000
20.719943	-0.007000	31.803000
20.750247	-0.030497	31.849000
20.781017	-0.050066	31.894000
20.810064	-0.064942	31.939000
20.914160	-0.076463	31.985000
20.945282	-0.086413	32.141000
20.975516	-0.087633	32.187000
21.220359	-0.155622	32.234000
21.252318	-0.159530	32.600000
21.282706	-0.165748	32.647000
21.312852	-0.169195	32.692000
21.343050	-0.175489	32.739000
21.374243	-0.181020	32.785000
21.404902	-0.186084	32.831000
21.436078	-0.197772	32.877000
21.467574	-0.211118	32.924000
21.498681	-0.223182	32.970000
21.529751	-0.232673	33.016000
21.643579	-0.244184	33.063000
21.674011	-0.279746	33.235000
21.704906	-0.285578	33.281000
21.810037	-0.269381	33.328000
21.841870	-0.260928	33.486000
21.872700	-0.252230	33.532000
21.904104	-0.249037	33.579000
21.934988	-0.248674	33.625000
21.965412	-0.248215	33.671000
21.994746	-0.251468	33.716000
22.025259	-0.255336	33.762000
22.056363	-0.257323	33.808000
22.087521	-0.258083	33.854000
22.118889	-0.249870	33.900000
22.149156	-0.230162	33.947000
22.180998	-0.213180	33.993000
22.211302	-0.207158	34.039000
22.241529	-0.207910	34.084000
22.271675	-0.212003	34.131000
22.376717	-0.218953	34.177000
22.407042	-0.246966	34.335000
22.438972	-0.255002	34.381000
22.545177	-0.246185	34.427000
22.575940	-0.239216	34.586000
22.607298	-0.238694	34.633000
22.637367	-0.242153	34.679000
22.668971	-0.241601	34.725000
22.698873	-0.239558	34.772000
22.729822	-0.240341	34.818000
22.760488	-0.245444	34.865000
22.792027	-0.246039	34.911000
22.822907	-0.249827	34.957000
22.853723	-0.264504	35.003000
22.885241	-0.283466	35.049000
22.915898	-0.293324	35.095000
22.947093	-0.280984	35.142000
22.976609	-0.257622	35.188000
23.007723	-0.237277	35.235000
23.111663	-0.226516	35.281000
23.143221	-0.233080	35.437000
23.174268	-0.230881	35.483000
23.278638	-0.205971	35.529000
23.309318	-0.192074	35.686000
23.337966	-0.183866	35.731000
23.369886	-0.180553	35.777000
23.400914	-0.185617	35.824000
23.431921	-0.201617	35.870000
23.462086	-0.227682	35.916000
23.493043	-0.241143	35.962000
23.524212	-0.284073	36.008000
23.554833	-0.321988	36.054000
23.584270	-0.340836	36.100000
23.615824	-0.356836	36.147000
23.646946	-0.362039	36.192000
23.677909	-0.362945	36.239000
23.708485	-0.362320	36.286000
23.739839	-0.355215	36.332000
23.985692	-0.345068	36.378000
24.016799	-0.256562	36.746000
24.047270	-0.275201	36.792000
24.079087	-0.296806	36.839000
24.108779	-0.307661	36.885000
24.138900	-0.307107	36.931000
24.169944	-0.288468	36.977000
24.200831	-0.257893	37.024000
24.232283	-0.234038	37.070000
24.262840	-0.216983	37.116000
24.293590	-0.206357	37.163000
24.324978	-0.206723	37.209000
24.356719	-0.221368	37.255000
24.387024	-0.231736	37.302000
24.416037	-0.227975	37.348000
24.447528	-0.206368	37.395000
24.478757	-0.186958	37.441000
24.583177	-0.166810	37.487000
24.613782	-0.117384	37.643000
24.644570	-0.116509	37.689000
24.888564	-0.263049	37.735000
24.919082	-0.289549	38.100000
24.949388	-0.295704	38.147000
24.980151	-0.277676	38.193000
25.010683	-0.253289	38.239000
25.042227	-0.223788	38.285000
25.073652	-0.199179	38.332000
25.104500	-0.171550	38.377000
25.134751	-0.135135	38.424000
25.165456	-0.098110	38.470000
25.194786	-0.069596	38.515000
25.311142	-0.045616	38.561000
25.341780	-0.017738	38.735000
25.372305	-0.023872	38.781000
25.478548	-0.020286	38.827000
25.509777	-0.025681	38.986000
25.540899	-0.030046	39.032000
25.571500	-0.034559	39.079000
25.600659	-0.039333	39.125000
25.631790	-0.046469	39.171000
25.663181	-0.047606	39.217000
25.694067	-0.050231	39.263000
25.725098	-0.053690	39.309000
25.756593	-0.059649	39.356000
25.787250	-0.061585	39.402000
25.818433	-0.061074	39.448000
25.848623	-0.059356	39.495000
25.879628	-0.054877	39.541000
25.909637	-0.057295	39.587000
25.941007	-0.060909	39.634000
26.045638	-0.063971	39.679000
26.075952	-0.090109	39.836000
26.107185	-0.105079	39.881000
26.212750	-0.146495	39.928000
26.243347	-0.138891	40.086000
26.273076	-0.107714	40.132000
26.304048	-0.094599	40.177000
26.334463	-0.096110	40.223000
26.365222	-0.090475	40.269000
26.396133	-0.080598	40.314000
26.425868	-0.074117	40.360000
26.456329	-0.075732	40.406000
26.486556	-0.073410	40.452000
26.517226	-0.043896	40.498000
26.547843	-0.012913	40.545000
26.579931	0.005820	40.591000
26.610705	0.011498	40.637000
26.642480	0.007454	40.684000
26.672330	0.002390	40.730000
26.778291	0.004749	40.775000
26.809040	0.078404	40.935000
26.838840	0.098709	40.981000
26.945212	0.177763	41.026000
26.975911	0.204138	41.185000
27.007233	0.237611	41.232000
27.037594	0.286701	41.278000
27.069173	0.345712	41.324000
27.100177	0.390584	41.370000
27.131634	0.418556	41.417000
27.161551	0.433681	41.463000
27.192264	0.434203	41.510000
27.222444	0.427276	41.556000
27.253245	0.420675	41.602000
27.284947	0.408045	41.648000
27.315489	0.404111	41.694000
27.346571	0.393323	41.740000
27.376905	0.384385	41.786000
27.408342	0.377321	41.831000
27.654504	0.367580	41.878000
27.684721	0.290181	42.247000
27.714483	0.279305	42.293000
27.744266	0.282950	42.339000
