Sample	2mm tape 2
date	08/01/2025
	
Temperature (K)	77.00
Angle (deg.)	0.000000
field / T	0.020000
	
		
Approx. trace time (s)	60.0	
		
Current / A	V1  -sample/ uV	time/s
0.001434	-1.581153	0.000000
0.001721	-1.709240	0.349000
0.001637	-1.760290	0.449000
0.001727	-1.719831	0.495000
0.001595	-1.714661	0.541000
0.001559	-1.791094	0.588000
0.001464	-1.803885	0.634000
0.001272	-1.722242	0.680000
0.001350	-1.721121	0.727000
0.029480	-1.765965	0.773000
0.060942	-1.753665	0.819000
0.092289	-1.679416	0.866000
0.123964	-1.711683	0.912000
0.154108	-1.751482	0.958000
0.185230	-1.717157	1.004000
0.215470	-1.652636	1.050000
0.318681	-1.688623	1.096000
0.350429	-1.582033	1.252000
0.381385	-1.607482	1.299000
0.625684	-1.448153	1.345000
0.656975	-1.408611	1.711000
0.687877	-1.377585	1.757000
0.719037	-1.457457	1.804000
0.749531	-1.516554	1.850000
0.779981	-1.494576	1.897000
0.810460	-1.519108	1.943000
0.841520	-1.619968	1.989000
0.872565	-1.671053	2.035000
0.903761	-1.631670	2.082000
0.934118	-1.671659	2.128000
1.042569	-1.748643	2.174000
1.074037	-1.771537	2.337000
1.104900	-1.779284	2.383000
1.207310	-1.798066	2.430000
1.237837	-1.770403	2.583000
1.268429	-1.735860	2.630000
1.299949	-1.796404	2.676000
1.330654	-1.813989	2.722000
1.361834	-1.735135	2.769000
1.392962	-1.718366	2.815000
1.423817	-1.790089	2.861000
1.455107	-1.814134	2.908000
1.485514	-1.747111	2.954000
1.515106	-1.749154	3.000000
1.546190	-1.805549	3.046000
1.577128	-1.804728	3.092000
1.608468	-1.729756	3.139000
1.639364	-1.749554	3.185000
1.670662	-1.770413	3.232000
1.777489	-1.728656	3.278000
1.808616	-1.765043	3.437000
1.839594	-1.713532	3.483000
1.941147	-1.755859	3.530000
1.971934	-1.686971	3.684000
2.003573	-1.720694	3.731000
2.034291	-1.735681	3.777000
2.065794	-1.667014	3.823000
2.096360	-1.658102	3.870000
2.128065	-1.717676	3.916000
2.159217	-1.721774	3.963000
2.189361	-1.650043	4.009000
2.218630	-1.670621	4.055000
2.250705	-1.713616	4.102000
2.281535	-1.684192	4.148000
2.312417	-1.615185	4.194000
2.343479	-1.653409	4.241000
2.374742	-1.694888	4.287000
2.405757	-1.658375	4.333000
2.555428	-1.606221	4.379000
2.673450	-1.592789	4.604000
2.704927	-1.640876	4.782000
2.736271	-1.665756	4.828000
2.767473	-1.599951	4.875000
2.796911	-1.576375	4.921000
2.826521	-1.635521	4.966000
2.857083	-1.657356	5.012000
2.888347	-1.584796	5.058000
2.919368	-1.586980	5.104000
2.950613	-1.654195	5.150000
2.981818	-1.672260	5.197000
3.013134	-1.611073	5.243000
3.043093	-1.640992	5.289000
3.073462	-1.675668	5.336000
3.104434	-1.639565	5.382000
3.135339	-1.555173	5.428000
3.385977	-1.575557	5.475000
3.416482	-1.480505	5.849000
3.446398	-1.498920	5.895000
3.477491	-1.454197	5.941000
3.508346	-1.489451	5.988000
3.538684	-1.553538	6.034000
3.570322	-1.551702	6.080000
3.601272	-1.489648	6.126000
3.632541	-1.531984	6.172000
3.663424	-1.580109	6.219000
3.694254	-1.551776	6.265000
3.724308	-1.507768	6.312000
3.755520	-1.567441	6.358000
3.785831	-1.610015	6.404000
3.817137	-1.563676	6.450000
3.848158	-1.538301	6.496000
3.878824	-1.598868	6.543000
3.983855	-1.620011	6.589000
4.013593	-1.590753	6.745000
4.044644	-1.545264	6.791000
4.289690	-1.313583	6.838000
4.320209	-1.321923	7.205000
4.351252	-1.393960	7.252000
4.383013	-1.373257	7.298000
4.414240	-1.296910	7.345000
4.445114	-1.313025	7.391000
4.476065	-1.366634	7.438000
4.507271	-1.362547	7.484000
4.538742	-1.305739	7.531000
4.569364	-1.361254	7.577000
4.598973	-1.406405	7.624000
4.711199	-1.368506	7.670000
4.742625	-1.334999	7.837000
4.773744	-1.260647	7.884000
4.875841	-1.212142	7.930000
4.906567	-1.210925	8.084000
4.938057	-1.274406	8.131000
4.969206	-1.267832	8.177000
5.000458	-1.167335	8.224000
5.031147	-1.170626	8.270000
5.062424	-1.211052	8.316000
5.093628	-1.189262	8.363000
5.123814	-1.127726	8.409000
5.154265	-1.176280	8.455000
5.184513	-1.220102	8.502000
5.215799	-1.183126	8.548000
5.246762	-1.149234	8.595000
5.278590	-1.217972	8.641000
5.309117	-1.264611	8.688000
5.340915	-1.220447	8.734000
5.445079	-1.219199	8.780000
5.475863	-1.187763	8.937000
5.506309	-1.241960	8.983000
5.609553	-1.246208	9.030000
5.640694	-1.306190	9.184000
5.670596	-1.308939	9.230000
5.702882	-1.265188	9.277000
5.733122	-1.327803	9.323000
5.763683	-1.394108	9.369000
5.792846	-1.378008	9.415000
5.824358	-1.339761	9.461000
5.855855	-1.395853	9.508000
5.886983	-1.430904	9.554000
5.918383	-1.375001	9.600000
5.949205	-1.343933	9.647000
5.979913	-1.394456	9.693000
6.010493	-1.400204	9.739000
6.041519	-1.317650	9.785000
6.071832	-1.296302	9.831000
6.177817	-1.337974	9.878000
6.208181	-1.282692	10.037000
6.240234	-1.293743	10.084000
6.343722	-1.221004	10.130000
6.374139	-1.206469	10.284000
6.406085	-1.139690	10.331000
6.436015	-1.183565	10.377000
6.466531	-1.235103	10.424000
6.496651	-1.208849	10.470000
6.528138	-1.169064	10.516000
6.558868	-1.233823	10.562000
6.590048	-1.278045	10.608000
6.620976	-1.239611	10.655000
6.651823	-1.225886	10.701000
6.683486	-1.293313	10.747000
6.713946	-1.321345	10.794000
6.743430	-1.256379	10.840000
6.774602	-1.258907	10.886000
6.805736	-1.312240	10.932000
7.052696	-1.303956	10.978000
7.083426	-1.258949	11.350000
7.114993	-1.233792	11.396000
7.146112	-1.305905	11.443000
7.177546	-1.344930	11.489000
7.207746	-1.299353	11.536000
7.239418	-1.314378	11.582000
7.270410	-1.395809	11.628000
7.301138	-1.426015	11.674000
7.329972	-1.384122	11.719000
7.361372	-1.435206	11.766000
7.392915	-1.510722	11.813000
7.423379	-1.513727	11.859000
7.454388	-1.470876	11.905000
7.485831	-1.529956	11.951000
7.516968	-1.580432	11.997000
7.547881	-1.541622	12.044000
7.651041	-1.490972	12.090000
7.680929	-1.432819	12.246000
7.712299	-1.436151	12.292000
7.957227	-1.326221	12.339000
7.988368	-1.332853	12.705000
8.019195	-1.247172	12.751000
8.049331	-1.189533	12.797000
8.080857	-1.242559	12.843000
8.111907	-1.271082	12.890000
8.141363	-1.203189	12.936000
8.171894	-1.186336	12.982000
8.203838	-1.219870	13.029000
8.234828	-1.201899	13.075000
8.265909	-1.118826	13.121000
8.379456	-1.134051	13.168000
8.409238	-1.065450	13.337000
8.440630	-1.106807	13.384000
8.543813	-1.091441	13.430000
8.575329	-1.125809	13.584000
8.605670	-1.062842	13.630000
8.636472	-1.023925	13.677000
8.667742	-1.051251	13.723000
8.698518	-1.027801	13.770000
8.728635	-0.933899	13.816000
8.759294	-0.926890	13.863000
8.790741	-0.967775	13.909000
8.822366	-0.945765	13.956000
8.853503	-0.874446	14.002000
8.884767	-0.901056	14.049000
8.916059	-0.931085	14.096000
8.946842	-0.885548	14.142000
8.978421	-0.820587	14.188000
9.008273	-0.860258	14.235000
9.111367	-0.880539	14.281000
9.142733	-0.842922	14.437000
9.174038	-0.832237	14.483000
9.277933	-0.909591	14.529000
9.308961	-0.866728	14.684000
9.339337	-0.879499	14.731000
9.369685	-0.958179	14.777000
9.399625	-0.963938	14.823000
9.430665	-0.890819	14.869000
9.461448	-0.911651	14.916000
9.492820	-0.969603	14.962000
9.524377	-0.958756	15.008000
9.555873	-0.902821	15.055000
9.585841	-0.961258	15.101000
9.616679	-1.015401	15.147000
9.646923	-0.986387	15.193000
9.677338	-0.948741	15.239000
9.708389	-1.011997	15.286000
9.740074	-1.056316	15.332000
9.845796	-1.012942	15.378000
9.876789	-1.084610	15.537000
9.907586	-1.033310	15.584000
10.010917	-1.070599	15.629000
10.041492	-1.073679	15.784000
10.071174	-1.130035	15.831000
10.102889	-1.127686	15.877000
10.133817	-1.054896	15.923000
10.164984	-1.077472	15.969000
10.196175	-1.126280	16.016000
10.227578	-1.104221	16.062000
10.258285	-1.034583	16.109000
10.288904	-1.079900	16.155000
10.319299	-1.128158	16.201000
10.349555	-1.096990	16.247000
10.380739	-1.054730	16.293000
10.411166	-1.109864	16.340000
10.442596	-1.143541	16.386000
10.473718	-1.089245	16.432000
10.720694	-1.070200	16.479000
10.752052	-1.209972	16.850000
10.782367	-1.273683	16.895000
10.813653	-1.258866	16.942000
10.844394	-1.219975	16.988000
10.875313	-1.279344	17.034000
10.905175	-1.328243	17.081000
10.936058	-1.292621	17.127000
10.967437	-1.277362	17.173000
10.998109	-1.349252	17.220000
11.029248	-1.383252	17.266000
11.060462	-1.327973	17.312000
11.091844	-1.336241	17.358000
11.122208	-1.399942	17.405000
11.153827	-1.405838	17.451000
11.184404	-1.347253	17.498000
11.214576	-1.382728	17.544000
11.319032	-1.432462	17.590000
11.350050	-1.409380	17.746000
11.381196	-1.414865	17.793000
11.626080	-1.325559	17.839000
11.656696	-1.266426	18.206000
11.687861	-1.307228	18.251000
11.717393	-1.332645	18.298000
11.748066	-1.270747	18.344000
11.778740	-1.228434	18.391000
11.810374	-1.279397	18.437000
11.841032	-1.296049	18.484000
11.872996	-1.226262	18.530000
11.903643	-1.216294	18.576000
11.934728	-1.265670	18.623000
12.046108	-1.261612	18.669000
12.076553	-1.237400	18.838000
12.108448	-1.158756	18.884000
12.212424	-1.170218	18.930000
12.243426	-1.116066	19.086000
12.274791	-1.164283	19.132000
12.304239	-1.189596	19.178000
12.335629	-1.127310	19.225000
12.366233	-1.099860	19.270000
12.397642	-1.157602	19.317000
12.427845	-1.169915	19.364000
12.459900	-1.091849	19.410000
12.491141	-1.095623	19.457000
12.522429	-1.151069	19.504000
12.552887	-1.152444	19.550000
12.584680	-1.094268	19.596000
12.615416	-1.135383	19.643000
12.645497	-1.173625	19.689000
12.675156	-1.125735	19.735000
12.780088	-1.059480	19.780000
12.811842	-1.052721	19.938000
12.842895	-1.074488	19.984000
12.946154	-1.050535	20.031000
12.976636	-1.110788	20.185000
13.006470	-1.138389	20.231000
13.037398	-1.087120	20.278000
13.068804	-1.108099	20.324000
13.100275	-1.187077	20.371000
13.131058	-1.206899	20.417000
13.162151	-1.170688	20.463000
13.193171	-1.235187	20.510000
13.224017	-1.315031	20.556000
13.254372	-1.316153	20.602000
13.285364	-1.278528	20.649000
13.315475	-1.333295	20.695000
13.346487	-1.367214	20.741000
13.377324	-1.308611	20.787000
13.408935	-1.266006	20.834000
13.513805	-1.291121	20.880000
13.545069	-1.217489	21.037000
13.576176	-1.246155	21.084000
13.678415	-1.202788	21.130000
13.709222	-1.180653	21.285000
13.739894	-1.109288	21.332000
13.771264	-1.136831	21.377000
13.802729	-1.188853	21.424000
13.833533	-1.168183	21.470000
13.863218	-1.129743	21.516000
13.894734	-1.193235	21.562000
13.924998	-1.241176	21.609000
13.955578	-1.210298	21.655000
13.986471	-1.193780	21.701000
14.017528	-1.263321	21.747000
14.048588	-1.293293	21.793000
14.080007	-1.220857	21.840000
14.110731	-1.191055	21.886000
14.141929	-1.232860	21.932000
14.389175	-1.225340	21.978000
14.420243	-1.089213	22.350000
14.450457	-1.021578	22.396000
14.480792	-1.063788	22.442000
14.511758	-1.099069	22.488000
14.542604	-1.057786	22.535000
14.573069	-1.040382	22.581000
14.604797	-1.116571	22.627000
14.635565	-1.157950	22.673000
14.666735	-1.105145	22.720000
14.696578	-1.114483	22.765000
14.728556	-1.174746	22.812000
14.758808	-1.163410	22.858000
14.789329	-1.085597	22.905000
14.818892	-1.098587	22.951000
14.850875	-1.119599	22.997000
14.881741	-1.070408	23.043000
14.986227	-0.995846	23.090000
15.017688	-0.917167	23.245000
15.047412	-0.908969	23.292000
15.291990	-0.848428	23.338000
15.323539	-0.863255	23.705000
15.354421	-0.788606	23.751000
15.386144	-0.734109	23.798000
15.416077	-0.773831	23.844000
15.448069	-0.782597	23.890000
15.478736	-0.713954	23.937000
15.509925	-0.720677	23.983000
15.540495	-0.788324	24.029000
15.571916	-0.802160	24.076000
15.602118	-0.760357	24.122000
15.714957	-0.809722	24.168000
15.746252	-0.871037	24.337000
15.776869	-0.934762	24.384000
15.878786	-0.935445	24.430000
15.910564	-0.947163	24.585000
15.941230	-0.864388	24.631000
15.972594	-0.848041	24.677000
16.002701	-0.879290	24.724000
16.034631	-0.846038	24.770000
16.065382	-0.757819	24.816000
16.096862	-0.787246	24.863000
16.127703	-0.836966	24.909000
16.158723	-0.808032	24.956000
16.189535	-0.756226	25.002000
16.219756	-0.810497	25.049000
16.250655	-0.835363	25.096000
16.282209	-0.775459	25.142000
16.313464	-0.754296	25.188000
16.343967	-0.829550	25.234000
16.448935	-0.865288	25.281000
16.479353	-0.911094	25.438000
16.511069	-0.884542	25.484000
16.613001	-0.909706	25.530000
16.644119	-0.830989	25.685000
16.675341	-0.846896	25.731000
16.705691	-0.880486	25.777000
16.737389	-0.853567	25.823000
16.767702	-0.777261	25.870000
16.799108	-0.798156	25.916000
16.828033	-0.816298	25.962000
16.859963	-0.756332	26.009000
16.891158	-0.708178	26.055000
16.921702	-0.744177	26.102000
16.952455	-0.744535	26.148000
16.984066	-0.671056	26.194000
17.015286	-0.662910	26.241000
17.046281	-0.713358	26.287000
17.077117	-0.704215	26.333000
17.181652	-0.644496	26.379000
17.212906	-0.683199	26.538000
17.243227	-0.694799	26.584000
17.347206	-0.769007	26.630000
17.378003	-0.849110	26.785000
17.408773	-0.902591	26.831000
17.439288	-0.867482	26.877000
17.469503	-0.852128	26.923000
17.499776	-0.908866	26.968000
17.530854	-0.908192	27.015000
17.562110	-0.833348	27.061000
17.593095	-0.842053	27.108000
17.624471	-0.893656	27.155000
17.654847	-0.886944	27.201000
17.686132	-0.833871	27.247000
17.717237	-0.880108	27.293000
17.748100	-0.932575	27.339000
17.777051	-0.903030	27.385000
17.808453	-0.879205	27.432000
18.056974	-0.946355	27.478000
18.087643	-1.042916	27.850000
18.118144	-1.019856	27.896000
18.148319	-0.967196	27.942000
18.180075	-1.010144	27.988000
18.211450	-1.043357	28.035000
18.242662	-0.976981	28.081000
18.273627	-0.930389	28.128000
18.304737	-0.974100	28.174000
18.335333	-0.977905	28.221000
18.365458	-0.892851	28.267000
18.396334	-0.862511	28.313000
18.427732	-0.891948	28.360000
18.458383	-0.866632	28.405000
18.488641	-0.778677	28.452000
18.520206	-0.777397	28.498000
18.551845	-0.804752	28.545000
18.656382	-0.770811	28.590000
18.685919	-0.791753	28.746000
18.715973	-0.723990	28.792000
18.961348	-0.576423	28.838000
18.992005	-0.589982	29.206000
19.023098	-0.610727	29.252000
19.054118	-0.554924	29.298000
19.085130	-0.522911	29.345000
19.116114	-0.580775	29.391000
19.147785	-0.604033	29.437000
19.177922	-0.547158	29.484000
19.207787	-0.558572	29.530000
19.239370	-0.624202	29.577000
19.270058	-0.628594	29.623000
19.383364	-0.576423	29.670000
19.414309	-0.602592	29.837000
19.443809	-0.627030	29.884000
19.546987	-0.623076	29.930000
19.578274	-0.676562	30.085000
19.609169	-0.688673	30.131000
19.640237	-0.638558	30.177000
19.671128	-0.656257	30.223000
19.702348	-0.721935	30.269000
19.732961	-0.730994	30.316000
19.762898	-0.674859	30.362000
19.792911	-0.713093	30.408000
19.824653	-0.765600	30.454000
19.855850	-0.748015	30.501000
19.887631	-0.729045	30.547000
19.917758	-0.809490	30.594000
19.949673	-0.852979	30.640000
19.980814	-0.813214	30.687000
20.012128	-0.835038	30.734000
20.116527	-0.910999	30.780000
20.146746	-0.905008	30.938000
20.177862	-0.919534	30.984000
20.281099	-0.911956	31.031000
20.313492	-0.865039	31.186000
20.344272	-0.820104	31.232000
20.375515	-0.844445	31.279000
20.405340	-0.838383	31.325000
20.436291	-0.764226	31.371000
20.466566	-0.752292	31.417000
20.497463	-0.807994	31.463000
20.528519	-0.809787	31.510000
20.559966	-0.743716	31.556000
20.591094	-0.756856	31.602000
20.621466	-0.792939	31.649000
20.652488	-0.758386	31.695000
20.682867	-0.690981	31.741000
20.713606	-0.718758	31.787000
20.742340	-0.740109	31.833000
20.849142	-0.680115	31.879000
20.879905	-0.634479	32.038000
20.911599	-0.570060	32.084000
21.015466	-0.574099	32.130000
21.045449	-0.569839	32.285000
21.076096	-0.615280	32.331000
21.105777	-0.598547	32.377000
21.137583	-0.523406	32.423000
21.168336	-0.530141	32.469000
21.199662	-0.545517	32.516000
21.230322	-0.479463	32.562000
21.261634	-0.398677	32.609000
21.293198	-0.438139	32.655000
21.324045	-0.478033	32.701000
21.353984	-0.432056	32.748000
21.384418	-0.392700	32.794000
21.415273	-0.443234	32.840000
21.445932	-0.458169	32.886000
21.477703	-0.388150	32.933000
21.724384	-0.388977	32.978000
21.755577	-0.390257	33.350000
21.787048	-0.399937	33.397000
21.817615	-0.330993	33.443000
21.849194	-0.315954	33.489000
21.879986	-0.372557	33.536000
21.910948	-0.367417	33.582000
21.941207	-0.287850	33.629000
21.972141	-0.288009	33.675000
22.003380	-0.314474	33.721000
22.033420	-0.268599	33.767000
22.064250	-0.181451	33.813000
22.095614	-0.200474	33.860000
22.127420	-0.209376	33.906000
22.158255	-0.135527	33.953000
22.189101	-0.079015	34.000000
22.219929	-0.115537	34.046000
22.322810	-0.125396	34.092000
22.353724	-0.130273	34.248000
22.385100	-0.093109	34.294000
22.630004	0.032157	34.340000
22.660277	0.028802	34.707000
22.691458	-0.018156	34.753000
22.722749	-0.003237	34.799000
22.752872	0.054589	34.845000
22.782561	0.011341	34.891000
22.813399	-0.032515	34.937000
22.844302	0.001211	34.983000
22.875700	0.022959	35.030000
22.907221	-0.039875	35.076000
22.938522	-0.068126	35.122000
23.050186	-0.005290	35.169000
23.080737	0.040630	35.338000
23.111517	0.075871	35.384000
23.215044	0.097327	35.430000
23.245729	0.059034	35.584000
23.277034	0.019583	35.630000
23.307791	0.059023	35.677000
23.337720	0.104591	35.723000
23.367966	0.073586	35.769000
23.399838	0.070647	35.816000
23.431271	0.134898	35.862000
23.462351	0.138800	35.909000
23.493014	0.079300	35.955000
23.524704	0.083367	36.002000
23.555415	0.153206	36.048000
23.586850	0.126184	36.095000
23.616472	0.079500	36.141000
23.647753	0.094578	36.187000
23.677674	0.135758	36.233000
23.783769	0.080685	36.280000
23.814395	0.104205	36.437000
23.845168	0.066217	36.483000
23.948989	0.064948	36.530000
23.979686	0.041281	36.685000
24.010927	0.101803	36.731000
24.040760	0.084352	36.778000
24.071705	0.025445	36.824000
24.103165	0.035784	36.871000
24.134331	0.083336	36.917000
24.165622	0.031254	36.963000
24.195485	-0.017487	37.008000
24.227074	0.015503	37.055000
24.258253	0.037053	37.102000
24.288576	-0.035484	37.148000
24.318882	-0.060864	37.195000
24.350188	0.002563	37.241000
24.381091	0.010616	37.287000
24.412082	-0.026286	37.334000
24.517641	-0.001055	37.380000
24.547935	0.000287	37.538000
24.579712	0.063574	37.584000
24.681064	0.041091	37.630000
24.712492	0.089944	37.785000
24.743003	0.030574	37.831000
24.774630	-0.012432	37.877000
24.805604	0.022740	37.923000
24.836672	0.032870	37.970000
24.867655	-0.040894	38.016000
24.897842	-0.074380	38.062000
24.928789	-0.035053	38.108000
24.959401	-0.060434	38.155000
24.990120	-0.122399	38.201000
25.020763	-0.120719	38.248000
25.053113	-0.090375	38.295000
25.083745	-0.160168	38.341000
25.115414	-0.225331	38.388000
25.145839	-0.206096	38.434000
25.392022	-0.199569	38.480000
25.423476	-0.178191	38.850000
25.454819	-0.218163	38.897000
25.485958	-0.182951	38.943000
25.515486	-0.158085	38.988000
25.546546	-0.221231	39.035000
25.577268	-0.247295	39.082000
25.608682	-0.192210	39.128000
25.639529	-0.200661	39.175000
25.670446	-0.263461	39.221000
25.702111	-0.265314	39.267000
25.732591	-0.228388	39.314000
25.764159	-0.276421	39.360000
25.795390	-0.326354	39.407000
25.825782	-0.296618	39.453000
25.854666	-0.273043	39.499000
25.886499	-0.329375	39.546000
25.991213	-0.354101	39.592000
26.022260	-0.361065	39.748000
26.053451	-0.322423	39.794000
26.298332	-0.224668	39.840000
26.328493	-0.200465	40.207000
26.360274	-0.243449	40.254000
26.390126	-0.233666	40.300000
26.421386	-0.165191	40.347000
26.451456	-0.186139	40.393000
26.482869	-0.234801	40.439000
26.514306	-0.215272	40.485000
26.544811	-0.173820	40.532000
26.575574	-0.239014	40.578000
26.606990	-0.293262	40.624000
26.717828	-0.266061	40.670000
26.748944	-0.329355	40.837000
26.779914	-0.293765	40.884000
26.883471	-0.327720	40.930000
26.913420	-0.351546	41.085000
26.944737	-0.384783	41.132000
26.975592	-0.340430	41.178000
27.006514	-0.291457	41.224000
27.037006	-0.334442	41.271000
27.068839	-0.351503	41.317000
27.099693	-0.281988	41.364000
27.131269	-0.228925	41.410000
27.161532	-0.237418	41.456000
27.192878	-0.207601	41.502000
27.223263	-0.114866	41.548000
27.253157	-0.099950	41.595000
27.283607	-0.112930	41.641000
27.315245	-0.060413	41.687000
27.346597	0.002543	41.734000
27.452199	-0.038425	41.780000
27.482673	-0.020674	41.937000
27.513071	-0.062272	41.983000
27.616049	0.006190	42.030000
27.646790	0.047990	42.185000
27.677583	0.168632	42.231000
27.708432	0.196338	42.277000
27.739485	0.178836	42.323000
27.770926	0.227163	42.369000
27.801792	0.303630	42.415000
27.832280	0.283320	42.461000
27.861739	0.276015	42.508000
27.893006	0.354196	42.554000
