Sample	2mm tape 2
date	08/01/2025
	
Temperature (K)	77.00
Angle (deg.)	0.000000
field / T	0.050000
	
		
Approx. trace time (s)	60.0	
		
Current / A	V1  -sample/ uV	time/s
0.002115	-2.259742	0.000000
0.002199	-2.248927	0.074000
0.002109	-2.243483	0.120000
0.002091	-2.226991	0.166000
0.002044	-2.223028	0.321000
0.002050	-2.222040	0.368000
0.002050	-2.217679	0.414000
0.002157	-2.216523	0.461000
0.002050	-2.211909	0.507000
0.002008	-2.206443	0.553000
0.002199	-2.200105	0.599000
0.002175	-2.190848	0.645000
0.002080	-2.184695	0.691000
0.011685	-2.172527	0.738000
0.042319	-2.158819	0.785000
0.073505	-2.144139	0.831000
0.103609	-2.125902	0.876000
0.135177	-2.109617	0.923000
0.166120	-2.098258	0.970000
0.271475	-2.090446	1.016000
0.302814	-2.066840	1.174000
0.333163	-2.077629	1.220000
0.435963	-2.078838	1.266000
0.467386	-2.064407	1.420000
0.498330	-2.048151	1.468000
0.529714	-2.035695	1.514000
0.560592	-2.018600	1.561000
0.592584	-2.000533	1.607000
0.623189	-2.001203	1.653000
0.653871	-2.002672	1.700000
0.684061	-2.004979	1.747000
0.715138	-2.011953	1.793000
0.745530	-2.018318	1.839000
0.776544	-2.026445	1.885000
0.807517	-2.031101	1.931000
0.839044	-2.008941	1.978000
0.870020	-1.991524	2.024000
0.900816	-1.983386	2.071000
1.146851	-1.962731	2.117000
1.178514	-1.782085	2.486000
1.208465	-1.772521	2.532000
1.239578	-1.768379	2.579000
1.269099	-1.766960	2.625000
1.300751	-1.770072	2.671000
1.331420	-1.769757	2.718000
1.363054	-1.768916	2.764000
1.394035	-1.763576	2.810000
1.425322	-1.761779	2.857000
1.456085	-1.762588	2.903000
1.487144	-1.763324	2.950000
1.517935	-1.769546	2.996000
1.548608	-1.775705	3.043000
1.579049	-1.783998	3.089000
1.609901	-1.792375	3.135000
1.641296	-1.799668	3.182000
1.745909	-1.803641	3.228000
1.776902	-1.802937	3.384000
1.807169	-1.797198	3.428000
2.051926	-1.728825	3.474000
2.081282	-1.712414	3.842000
2.112821	-1.703583	3.888000
2.143071	-1.683911	3.935000
2.174370	-1.670445	3.980000
2.204978	-1.658240	4.027000
2.236958	-1.641439	4.073000
2.267852	-1.628014	4.120000
2.299372	-1.619919	4.167000
2.329831	-1.614321	4.213000
2.360791	-1.611141	4.259000
2.472537	-1.616855	4.304000
2.503034	-1.612777	4.474000
2.534799	-1.603894	4.520000
2.638079	-1.577501	4.566000
2.667362	-1.577239	4.721000
2.699079	-1.576556	4.768000
2.729872	-1.579388	4.813000
2.761362	-1.578466	4.860000
2.791163	-1.569509	4.906000
2.823077	-1.567076	4.952000
2.853645	-1.568481	4.998000
2.885231	-1.565809	5.045000
2.914091	-1.559913	5.091000
2.945766	-1.548914	5.137000
2.976655	-1.540307	5.184000
3.007146	-1.529081	5.230000
3.037629	-1.520674	5.276000
3.069340	-1.494882	5.322000
3.100218	-1.449068	5.369000
3.206444	-1.401227	5.415000
3.237722	-1.281161	5.574000
3.267328	-1.278770	5.620000
3.370444	-1.234242	5.666000
3.401940	-1.219320	5.821000
3.432797	-1.202888	5.868000
3.464090	-1.183749	5.914000
3.494429	-1.178316	5.960000
3.525823	-1.170315	6.007000
3.556946	-1.163184	6.052000
3.587679	-1.165031	6.099000
3.617292	-1.172109	6.146000
3.649206	-1.178484	6.192000
3.680023	-1.159482	6.239000
3.711459	-1.130550	6.285000
3.741481	-1.117662	6.332000
3.773623	-1.122726	6.378000
3.804338	-1.127939	6.424000
3.835571	-1.132931	6.471000
3.940426	-1.141696	6.517000
3.969596	-1.183634	6.673000
4.000826	-1.205499	6.720000
4.103758	-1.250508	6.766000
4.135290	-1.254723	6.920000
4.166351	-1.253225	6.966000
4.197157	-1.243785	7.012000
4.227296	-1.236309	7.058000
4.257564	-1.226766	7.105000
4.288736	-1.228559	7.151000
4.319800	-1.201396	7.198000
4.351189	-1.213899	7.244000
4.381828	-1.195114	7.290000
4.413354	-1.182300	7.337000
4.443684	-1.166937	7.383000
4.475335	-1.146302	7.429000
4.506314	-1.125052	7.476000
4.536745	-1.113297	7.522000
4.566505	-1.106174	7.569000
4.814576	-1.107519	7.615000
4.845701	-1.241952	7.986000
4.876718	-1.272091	8.033000
4.907492	-1.299105	8.079000
4.938068	-1.322042	8.125000
4.969600	-1.339922	8.172000
5.000853	-1.342519	8.218000
5.031949	-1.337611	8.264000
5.062832	-1.327965	8.310000
5.092818	-1.318535	8.356000
5.123535	-1.316220	8.402000
5.153634	-1.315348	8.448000
5.184857	-1.311228	8.495000
5.216042	-1.301977	8.541000
5.247316	-1.297468	8.588000
5.277380	-1.291827	8.634000
5.309277	-1.290284	8.679000
5.413085	-1.286206	8.727000
5.443379	-1.276579	8.883000
5.473563	-1.277596	8.929000
5.718122	-1.339953	8.975000
5.749964	-1.328164	9.342000
5.780818	-1.324033	9.389000
5.812247	-1.313650	9.435000
5.842979	-1.304807	9.481000
5.874279	-1.313428	9.528000
5.905438	-1.328878	9.574000
5.936403	-1.316405	9.621000
5.966382	-1.285584	9.667000
5.996609	-1.259778	9.713000
6.027947	-1.240155	9.760000
6.140585	-1.232712	9.806000
6.172051	-1.251556	9.974000
6.202110	-1.246354	10.020000
6.305293	-1.234819	10.067000
6.335787	-1.247164	10.221000
6.366847	-1.261373	10.266000
6.397868	-1.272081	10.313000
6.428410	-1.275762	10.359000
6.459824	-1.279712	10.405000
6.489685	-1.285585	10.452000
6.520709	-1.301536	10.498000
6.550941	-1.305175	10.544000
6.582603	-1.313713	10.591000
6.613575	-1.318021	10.637000
6.644680	-1.328668	10.684000
6.675609	-1.336054	10.730000
6.706569	-1.337410	10.776000
6.737329	-1.345345	10.823000
6.768951	-1.344788	10.869000
6.874128	-1.341761	10.915000
6.904099	-1.356076	11.074000
6.935381	-1.375341	11.120000
7.039376	-1.411297	11.167000
7.069450	-1.401838	11.321000
7.101433	-1.392946	11.368000
7.132133	-1.389866	11.414000
7.163347	-1.396161	11.460000
7.192730	-1.391074	11.506000
7.223948	-1.384905	11.553000
7.254685	-1.368689	11.599000
7.285956	-1.349885	11.645000
7.316831	-1.332292	11.692000
7.347992	-1.322242	11.738000
7.378929	-1.308658	11.784000
7.410560	-1.286907	11.831000
7.440766	-1.262201	11.877000
7.470909	-1.232282	11.923000
7.501283	-1.194739	11.969000
7.606840	-1.150462	12.016000
7.638087	-1.075043	12.174000
7.668726	-1.087046	12.220000
7.772345	-1.149363	12.267000
7.804270	-1.162167	12.421000
7.834115	-1.171134	12.468000
7.865462	-1.174970	12.514000
7.894922	-1.179419	12.561000
7.926677	-1.180425	12.607000
7.957511	-1.178003	12.653000
7.989100	-1.163646	12.700000
8.019565	-1.149773	12.746000
8.051518	-1.139526	12.793000
8.082368	-1.129899	12.839000
8.113400	-1.103179	12.885000
8.143126	-1.080130	12.932000
8.174033	-1.075296	12.978000
8.204712	-1.077913	13.024000
8.236220	-1.076242	13.071000
8.481759	-1.071554	13.117000
8.513237	-1.149667	13.486000
8.544225	-1.166800	13.533000
8.575742	-1.172862	13.579000
8.606609	-1.155360	13.626000
8.638282	-1.146207	13.672000
8.668595	-1.149720	13.718000
8.699097	-1.149057	13.764000
8.728164	-1.144222	13.810000
8.760086	-1.140572	13.857000
8.791013	-1.130412	13.903000
8.822667	-1.110872	13.950000
8.853404	-1.088801	13.996000
8.884903	-1.062642	14.043000
8.915862	-1.038541	14.089000
8.946943	-1.027622	14.135000
8.977489	-1.008893	14.181000
9.080015	-1.001284	14.228000
9.111386	-1.019655	14.384000
9.142925	-1.038962	14.430000
9.387804	-1.155947	14.477000
9.418254	-1.168323	14.843000
9.448918	-1.176155	14.889000
9.480324	-1.188404	14.936000
9.511658	-1.194182	14.982000
9.541777	-1.197193	15.028000
9.571885	-1.196699	15.075000
9.602740	-1.193804	15.121000
9.634531	-1.184734	15.168000
9.665294	-1.170377	15.214000
9.696447	-1.137334	15.260000
9.807459	-1.112259	15.307000
9.838443	-1.087592	15.474000
9.869079	-1.076799	15.520000
9.973156	-1.021483	15.566000
10.003685	-0.999298	15.721000
10.033987	-0.975734	15.767000
10.065345	-0.947420	15.813000
10.096551	-0.943993	15.860000
10.126468	-0.948292	15.906000
10.156752	-0.948302	15.952000
10.188028	-0.934145	15.998000
10.219282	-0.902415	16.044000
10.250552	-0.863037	16.091000
10.281481	-0.824424	16.138000
10.312791	-0.803934	16.184000
10.344075	-0.775754	16.231000
10.373795	-0.741420	16.277000
10.403707	-0.709289	16.323000
10.435054	-0.691966	16.369000
10.541010	-0.690455	16.416000
10.572584	-0.712531	16.574000
10.603102	-0.717657	16.620000
10.707096	-0.724317	16.666000
10.737764	-0.734521	16.821000
10.768203	-0.752934	16.868000
10.798956	-0.766516	16.914000
10.829601	-0.778933	16.961000
10.860373	-0.789661	17.007000
10.891672	-0.801049	17.053000
10.923211	-0.817145	17.100000
10.954098	-0.835709	17.146000
10.984802	-0.857070	17.193000
11.016055	-0.873261	17.239000
11.047031	-0.879238	17.285000
11.077180	-0.886128	17.331000
11.106892	-0.894123	17.378000
11.138664	-0.903089	17.424000
11.169408	-0.916846	17.470000
11.275160	-0.926820	17.516000
11.306316	-0.938297	17.674000
11.336689	-0.941482	17.720000
11.440225	-0.986172	17.765000
11.470175	-0.993654	17.922000
11.501973	-1.012739	17.968000
11.532688	-1.030355	18.014000
11.563909	-1.041117	18.061000
11.595242	-1.042073	18.107000
11.626347	-1.046613	18.153000
11.656809	-1.049725	18.200000
11.687311	-1.054780	18.246000
11.718211	-1.063598	18.292000
11.748366	-1.072437	18.338000
11.778657	-1.079667	18.384000
11.809388	-1.091428	18.429000
11.840909	-1.100677	18.476000
11.872018	-1.109074	18.522000
11.902856	-1.110242	18.569000
12.150663	-1.107183	18.615000
12.180444	-1.112406	18.986000
12.212944	-1.118878	19.032000
12.243493	-1.121843	19.079000
12.274416	-1.125967	19.125000
12.303818	-1.126804	19.171000
12.335235	-1.123428	19.217000
12.365720	-1.119726	19.264000
12.397256	-1.117030	19.310000
12.428142	-1.118593	19.357000
12.459723	-1.119894	19.403000
12.490344	-1.121048	19.449000
12.520786	-1.115249	19.496000
12.552623	-1.107897	19.542000
12.582917	-1.098932	19.588000
12.613329	-1.079593	19.634000
12.643041	-1.049766	19.681000
12.748180	-1.022283	19.727000
12.779331	-0.976797	19.883000
12.810266	-0.970237	19.929000
13.054880	-1.010983	19.975000
13.086456	-1.027683	20.342000
13.115900	-1.047842	20.388000
13.145822	-1.068336	20.434000
13.176636	-1.091963	20.480000
13.207977	-1.115269	20.527000
13.238386	-1.141778	20.573000
13.270054	-1.163423	20.619000
13.300893	-1.173029	20.665000
13.331962	-1.176038	20.711000
13.361763	-1.182299	20.758000
13.474262	-1.202392	20.804000
13.506368	-1.269456	20.973000
13.537453	-1.273871	21.020000
13.641120	-1.309192	21.067000
13.672017	-1.317517	21.221000
13.701624	-1.327093	21.268000
13.733108	-1.345365	21.314000
13.763934	-1.371199	21.361000
13.795255	-1.400721	21.407000
13.826137	-1.430275	21.454000
13.857671	-1.453281	21.500000
13.888330	-1.466682	21.547000
13.919753	-1.471821	21.593000
13.950370	-1.469141	21.639000
13.981581	-1.457538	21.686000
14.011967	-1.437212	21.732000
14.042307	-1.411725	21.778000
14.072485	-1.386711	21.824000
14.104288	-1.361614	21.871000
14.209176	-1.344293	21.917000
14.240291	-1.304744	22.074000
14.271621	-1.291407	22.121000
14.373634	-1.213603	22.167000
14.404321	-1.207688	22.321000
14.435220	-1.211254	22.367000
14.466631	-1.213203	22.414000
14.498343	-1.220650	22.461000
14.529257	-1.213351	22.507000
14.559994	-1.194580	22.553000
14.590955	-1.187155	22.599000
14.622223	-1.189871	22.646000
14.652164	-1.180820	22.692000
14.682594	-1.155002	22.739000
14.713844	-1.125030	22.785000
14.744624	-1.108443	22.832000
14.775513	-1.103398	22.878000
14.806909	-1.098511	22.924000
14.838299	-1.090807	22.970000
14.943241	-1.091575	23.017000
14.974128	-1.030006	23.174000
15.004090	-0.991899	23.220000
15.107946	-0.930951	23.267000
15.138406	-0.933042	23.421000
15.170089	-0.934640	23.467000
15.201311	-0.941503	23.513000
15.232277	-0.948660	23.560000
15.261756	-0.958603	23.606000
15.292963	-0.974851	23.652000
15.323545	-0.991752	23.699000
15.354590	-1.001566	23.745000
15.385930	-1.014851	23.792000
15.417079	-1.034683	23.838000
15.448602	-1.050974	23.885000
15.479176	-1.064858	23.931000
15.510348	-1.067875	23.977000
15.541169	-1.071584	24.024000
15.572095	-1.077755	24.070000
15.819151	-1.078437	24.116000
15.849959	-1.153074	24.486000
15.880230	-1.163013	24.533000
15.910914	-1.172556	24.579000
15.941312	-1.175189	24.625000
15.972442	-1.180935	24.672000
16.003385	-1.176574	24.718000
16.034982	-1.168374	24.764000
16.065980	-1.151405	24.811000
16.096491	-1.128922	24.857000
16.127818	-1.101728	24.903000
16.158454	-1.085857	24.950000
16.189207	-1.066676	24.996000
16.218806	-1.047916	25.042000
16.250561	-1.042839	25.088000
16.281764	-1.046875	25.135000
16.313174	-1.042881	25.181000
16.416962	-1.019507	25.228000
16.447091	-0.964310	25.383000
16.478247	-0.941618	25.429000
16.722642	-0.860941	25.475000
16.753336	-0.862743	25.842000
16.784667	-0.862094	25.889000
16.814959	-0.846616	25.935000
16.846425	-0.836915	25.982000
16.877395	-0.830223	26.028000
16.908797	-0.839359	26.074000
16.939447	-0.859651	26.120000
16.970444	-0.879512	26.167000
17.000349	-0.898201	26.212000
17.030755	-0.912800	26.259000
17.144053	-0.932211	26.306000
17.175227	-0.995735	26.474000
17.206566	-1.009879	26.521000
17.308293	-1.032434	26.567000
17.339211	-1.028682	26.722000
17.370195	-1.025371	26.767000
17.400631	-1.025907	26.814000
17.432480	-1.028871	26.860000
17.463160	-1.014767	26.906000
17.494816	-0.999129	26.952000
17.524653	-0.983532	26.999000
17.556153	-0.964824	27.045000
17.586628	-0.937004	27.092000
17.616976	-0.904865	27.138000
17.647254	-0.874803	27.184000
17.679321	-0.845795	27.230000
17.710308	-0.819893	27.277000
17.740948	-0.795208	27.323000
17.772358	-0.765719	27.369000
17.876953	-0.734447	27.415000
17.908714	-0.627215	27.574000
17.938576	-0.593258	27.620000
18.041953	-0.513414	27.666000
18.073490	-0.481106	27.821000
18.103926	-0.453944	27.868000
18.135555	-0.439650	27.914000
18.165895	-0.442377	27.960000
18.196216	-0.444193	28.006000
18.225755	-0.450536	28.052000
18.257657	-0.453746	28.098000
18.288850	-0.452948	28.145000
18.319749	-0.458320	28.191000
18.350171	-0.463835	28.238000
18.381925	-0.480623	28.284000
18.412839	-0.492426	28.330000
18.444507	-0.490607	28.377000
18.474647	-0.477070	28.423000
18.505421	-0.463751	28.469000
18.610733	-0.455851	28.515000
18.640988	-0.433013	28.674000
18.672583	-0.400787	28.720000
18.776472	-0.376739	28.766000
18.807564	-0.395993	28.921000
18.838922	-0.408326	28.968000
18.869652	-0.418886	29.015000
18.900182	-0.429835	29.061000
18.930338	-0.445271	29.108000
18.961784	-0.461002	29.154000
18.992656	-0.478583	29.200000
19.023786	-0.470700	29.247000
19.054435	-0.452371	29.293000
19.086269	-0.439985	29.339000
19.117145	-0.446622	29.386000
19.148110	-0.453251	29.432000
19.177512	-0.458478	29.478000
19.208932	-0.473738	29.524000
19.239451	-0.496094	29.571000
19.486095	-0.507391	29.617000
19.516674	-0.558650	29.986000
19.547208	-0.545312	30.033000
19.578664	-0.504701	30.079000
19.609924	-0.468641	30.125000
19.641103	-0.447054	30.172000
19.672367	-0.442702	30.218000
19.703481	-0.441695	30.264000
19.734163	-0.426730	30.311000
19.763349	-0.414880	30.357000
19.794444	-0.404698	30.403000
19.825447	-0.394346	30.450000
19.856332	-0.389335	30.495000
19.887074	-0.392575	30.541000
19.918563	-0.396309	30.588000
19.949704	-0.398949	30.634000
19.980964	-0.416945	30.680000
20.084197	-0.436956	30.726000
20.114602	-0.464841	30.883000
20.145030	-0.465301	30.929000
20.389996	-0.484238	30.976000
20.421668	-0.507160	31.342000
20.452515	-0.521559	31.388000
20.483037	-0.534613	31.435000
20.514274	-0.545702	31.482000
20.545944	-0.546300	31.527000
20.575963	-0.531028	31.574000
20.605861	-0.519058	31.620000
20.636969	-0.519815	31.667000
20.668587	-0.534245	31.713000
20.699165	-0.538134	31.760000
20.812145	-0.546227	31.806000
20.841651	-0.606459	31.973000
20.873434	-0.632314	32.021000
20.976955	-0.699505	32.067000
21.008637	-0.712748	32.223000
21.039502	-0.724924	32.269000
21.070872	-0.737612	32.315000
21.101035	-0.747597	32.362000
21.132395	-0.761167	32.408000
21.162860	-0.767910	32.454000
21.193152	-0.776541	32.501000
21.223538	-0.787048	32.547000
21.254942	-0.786365	32.593000
21.285640	-0.779644	32.639000
21.316479	-0.761964	32.685000
21.347395	-0.739827	32.732000
21.379260	-0.709017	32.778000
21.409875	-0.682642	32.824000
21.439743	-0.684592	32.871000
21.544897	-0.689931	32.917000
21.575392	-0.691095	33.074000
21.606883	-0.693967	33.121000
21.710458	-0.664347	33.167000
21.741230	-0.652376	33.320000
21.772194	-0.636811	33.367000
21.801561	-0.617241	33.414000
21.832953	-0.602474	33.460000
21.863747	-0.592048	33.506000
21.894527	-0.581318	33.552000
21.925149	-0.575422	33.598000
21.956828	-0.578027	33.645000
21.987479	-0.587907	33.690000
22.018668	-0.605060	33.737000
22.049062	-0.619532	33.783000
22.079994	-0.634445	33.830000
22.110069	-0.650589	33.876000
22.140866	-0.663706	33.923000
22.172504	-0.675739	33.969000
22.277647	-0.691524	34.015000
22.309606	-0.754728	34.174000
22.340257	-0.769368	34.220000
22.444249	-0.818101	34.267000
22.474850	-0.830337	34.421000
22.504163	-0.846436	34.468000
22.535999	-0.858402	34.514000
22.566748	-0.876533	34.560000
22.598029	-0.884408	34.607000
22.628108	-0.901952	34.653000
22.660367	-0.917349	34.699000
22.691570	-0.929289	34.746000
22.722849	-0.945517	34.792000
22.752361	-0.956269	34.839000
22.783337	-0.965906	34.885000
22.813814	-0.974682	34.931000
22.845494	-0.981366	34.978000
22.876111	-0.986012	35.024000
22.907884	-0.989238	35.070000
23.153422	-0.996133	35.117000
23.184343	-1.078468	35.486000
23.215368	-1.089808	35.533000
23.247074	-1.096430	35.579000
23.278167	-1.099761	35.626000
23.308909	-1.100539	35.672000
23.338749	-1.090680	35.719000
23.369950	-1.075945	35.765000
23.400403	-1.054694	35.811000
23.431877	-1.030594	35.858000
23.462464	-1.007420	35.903000
23.493642	-0.983174	35.950000
23.525294	-0.968019	35.997000
23.555651	-0.959139	36.043000
23.587157	-0.957487	36.089000
23.617709	-0.961671	36.135000
23.648444	-0.965465	36.182000
23.751939	-0.971319	36.228000
23.783314	-0.970878	36.384000
23.814115	-0.976658	36.431000
24.058591	-1.123731	36.477000
24.090401	-1.144619	36.844000
24.121275	-1.165058	36.890000
24.151534	-1.181375	36.936000
24.182329	-1.203775	36.982000
24.212733	-1.229376	37.029000
24.244099	-1.253841	37.075000
24.274917	-1.275528	37.122000
24.306260	-1.295610	37.169000
24.337095	-1.315095	37.215000
24.368123	-1.330765	37.261000
24.478479	-1.346426	37.307000
24.508993	-1.385754	37.474000
24.540960	-1.389401	37.521000
24.644307	-1.373173	37.567000
24.675603	-1.364134	37.721000
24.706514	-1.347570	37.768000
24.736731	-1.331132	37.814000
24.766996	-1.312816	37.861000
24.798275	-1.303998	37.907000
24.829098	-1.300317	37.953000
24.859778	-1.296093	37.999000
24.890974	-1.297120	38.046000
24.922114	-1.314148	38.092000
24.953299	-1.337092	38.138000
24.984131	-1.352678	38.185000
25.014703	-1.355705	38.232000
25.045635	-1.358680	38.278000
25.076052	-1.358638	38.324000
25.107016	-1.359058	38.371000
25.212149	-1.358155	38.416000
25.243142	-1.341822	38.573000
25.273826	-1.340161	38.619000
25.376358	-1.265627	38.665000
25.407061	-1.215362	38.820000
25.438073	-1.179748	38.867000
25.468342	-1.157886	38.913000
25.500292	-1.150670	38.959000
25.531327	-1.163547	39.005000
25.562097	-1.190259	39.052000
25.592864	-1.228325	39.098000
25.624245	-1.267997	39.144000
25.655256	-1.307586	39.191000
25.684942	-1.342180	39.237000
25.715586	-1.376116	39.283000
25.746806	-1.400730	39.329000
25.777772	-1.416423	39.376000
25.808502	-1.430433	39.421000
25.839086	-1.442602	39.468000
25.946389	-1.456990	39.514000
25.977619	-1.520566	39.674000
26.009140	-1.530876	39.721000
26.110537	-1.507722	39.767000
26.141349	-1.507491	39.921000
26.173138	-1.511096	39.968000
26.203849	-1.512525	40.015000
26.235779	-1.516288	40.061000
26.266705	-1.524253	40.108000
26.297222	-1.525978	40.154000
26.328461	-1.522384	40.200000
26.358839	-1.522405	40.247000
26.388953	-1.525821	40.293000
26.419729	-1.519062	40.339000
26.450854	-1.509393	40.384000
26.481826	-1.505125	40.430000
26.512795	-1.501762	40.477000
26.543094	-1.493638	40.523000
26.574424	-1.494206	40.569000
26.821775	-1.493165	40.616000
26.853366	-1.369022	40.987000
26.884560	-1.360142	41.033000
26.913606	-1.353625	41.079000
26.944983	-1.347981	41.126000
26.975154	-1.342400	41.172000
27.006597	-1.335831	41.218000
27.037379	-1.333225	41.264000
27.068489	-1.331490	41.310000
27.099207	-1.324375	41.357000
27.130304	-1.319415	41.403000
27.161499	-1.316385	41.449000
27.191553	-1.312316	41.495000
27.222147	-1.295799	41.541000
27.252283	-1.285594	41.588000
27.283852	-1.275003	41.634000
27.314723	-1.271826	41.681000
27.419677	-1.269676	41.727000
27.450797	-1.317852	41.883000
27.482076	-1.333383	41.930000
