Sample	2mm tape 2
date	08/01/2025
	
Temperature (K)	77.00
Angle (deg.)	0.000000
field / T	0.000000
	
		
Approx. trace time (s)	180.0	
		
Current / A	V1  -sample/ uV	time/s
0.001780	-1.892223	0.000000
0.002072	-1.863992	0.110000
0.002007	-1.845346	0.157000
0.002007	-1.832461	0.203000
0.002102	-1.823790	0.250000
0.002096	-1.817170	0.296000
0.001983	-1.811021	0.342000
0.002090	-1.805261	0.389000
0.001941	-1.796158	0.435000
0.001816	-1.778912	0.481000
0.001977	-1.758190	0.527000
0.001810	-1.737846	0.574000
0.001899	-1.713004	0.620000
0.001822	-1.691496	0.666000
0.001517	-1.667598	0.713000
0.012215	-1.638658	0.758000
0.062733	-1.610020	0.805000
0.076911	-1.513545	0.966000
0.091053	-1.501615	1.013000
0.137594	-1.498157	1.059000
0.151489	-1.507585	1.214000
0.165895	-1.519922	1.260000
0.180488	-1.530694	1.307000
0.194430	-1.537894	1.353000
0.208372	-1.538797	1.399000
0.221937	-1.540216	1.444000
0.235949	-1.545035	1.490000
0.249775	-1.528594	1.535000
0.263929	-1.509223	1.581000
0.277744	-1.498839	1.627000
0.292211	-1.479689	1.673000
0.306490	-1.452458	1.719000
0.320596	-1.431076	1.766000
0.334864	-1.420040	1.812000
0.348982	-1.416940	1.858000
0.463359	-1.406912	1.904000
0.477702	-1.402817	2.279000
0.491658	-1.412118	2.325000
0.504845	-1.400146	2.370000
0.519005	-1.365273	2.417000
0.533159	-1.331702	2.463000
0.547494	-1.313463	2.510000
0.561691	-1.324798	2.556000
0.576197	-1.346491	2.603000
0.590321	-1.353343	2.648000
0.604338	-1.345704	2.694000
0.618501	-1.340922	2.741000
0.632281	-1.349309	2.786000
0.646875	-1.361530	2.832000
0.660309	-1.367103	2.879000
0.675044	-1.369625	2.925000
0.688573	-1.355300	2.972000
0.736882	-1.347996	3.018000
0.750816	-1.342088	3.174000
0.765382	-1.344749	3.220000
0.877643	-1.286366	3.266000
0.891872	-1.304537	3.634000
0.905162	-1.295571	3.680000
0.919618	-1.285662	3.726000
0.933874	-1.305083	3.773000
0.948067	-1.325900	3.819000
0.962398	-1.330260	3.866000
0.976304	-1.333627	3.912000
0.990382	-1.343370	3.958000
1.005122	-1.354940	4.005000
1.018679	-1.367994	4.051000
1.070982	-1.384484	4.097000
1.085214	-1.493259	4.266000
1.099021	-1.525869	4.313000
1.146446	-1.592383	4.359000
1.160053	-1.605322	4.514000
1.174545	-1.615157	4.560000
1.188132	-1.624018	4.607000
1.202762	-1.626651	4.653000
1.216596	-1.626557	4.700000
1.231447	-1.609137	4.746000
1.245230	-1.589718	4.792000
1.259677	-1.587713	4.839000
1.273617	-1.596902	4.885000
1.288076	-1.599094	4.931000
1.302170	-1.586823	4.977000
1.315611	-1.562055	5.024000
1.329812	-1.517243	5.070000
1.344343	-1.470167	5.116000
1.358825	-1.444375	5.162000
1.406844	-1.440835	5.209000
1.421240	-1.508761	5.366000
1.435081	-1.531368	5.413000
1.481741	-1.554683	5.459000
1.496065	-1.573557	5.614000
1.509823	-1.588324	5.660000
1.525128	-1.605196	5.706000
1.539534	-1.624028	5.752000
1.553216	-1.644467	5.799000
1.567426	-1.666809	5.845000
1.581467	-1.688285	5.892000
1.595717	-1.702494	5.939000
1.609734	-1.716252	5.985000
1.623697	-1.725563	6.031000
1.638228	-1.725219	6.078000
1.652445	-1.709469	6.124000
1.666733	-1.679097	6.171000
1.680825	-1.648766	6.217000
1.695290	-1.620421	6.264000
1.743011	-1.595966	6.310000
1.757406	-1.554025	6.466000
1.770838	-1.554588	6.511000
1.818204	-1.550471	6.558000
1.832453	-1.548288	6.712000
1.846840	-1.556938	6.759000
1.860558	-1.573580	6.805000
1.874879	-1.583512	6.852000
1.888509	-1.591290	6.898000
1.902589	-1.601726	6.945000
1.916823	-1.613062	6.991000
1.930807	-1.625685	7.038000
1.945192	-1.641816	7.084000
1.959556	-1.659397	7.130000
1.973629	-1.680811	7.177000
1.987840	-1.701278	7.223000
2.002201	-1.726122	7.268000
2.015920	-1.733861	7.315000
2.030354	-1.727297	7.362000
2.144201	-1.720888	7.408000
2.157886	-1.803732	7.779000
2.172139	-1.819919	7.825000
2.186403	-1.820876	7.871000
2.199823	-1.813433	7.918000
2.214070	-1.816189	7.964000
2.229016	-1.835286	8.010000
2.243024	-1.855117	8.057000
2.256607	-1.856421	8.102000
2.271036	-1.841768	8.149000
2.285411	-1.808831	8.195000
2.299069	-1.783806	8.240000
2.313004	-1.781989	8.287000
2.326694	-1.774716	8.333000
2.341212	-1.767432	8.379000
2.355271	-1.768988	8.425000
2.369843	-1.763552	8.471000
2.416981	-1.743927	8.518000
2.430725	-1.642589	8.673000
2.444632	-1.608529	8.719000
2.556850	-1.661187	8.766000
2.571954	-1.681647	9.133000
2.586324	-1.704635	9.179000
2.599882	-1.734909	9.225000
2.614096	-1.771332	9.271000
2.628148	-1.812593	9.318000
2.642422	-1.843725	9.364000
2.656597	-1.859931	9.411000
2.670359	-1.870223	9.457000
2.683997	-1.871192	9.503000
2.698836	-1.868867	9.549000
2.751289	-1.874868	9.596000
2.765290	-2.001717	9.765000
2.779206	-2.033731	9.812000
2.826121	-2.114239	9.858000
2.840290	-2.126971	10.013000
2.854402	-2.123539	10.059000
2.868723	-2.108072	10.105000
2.883457	-2.084924	10.152000
2.897533	-2.055531	10.198000
2.911901	-2.020957	10.245000
2.925944	-1.984298	10.291000
2.940143	-1.943426	10.338000
2.953733	-1.894996	10.384000
2.967738	-1.849178	10.430000
2.982678	-1.811015	10.476000
2.997033	-1.776890	10.523000
3.011196	-1.747826	10.569000
3.025140	-1.722857	10.615000
3.039229	-1.701392	10.661000
3.086989	-1.685453	10.708000
3.101197	-1.689700	10.867000
3.115805	-1.685622	10.913000
3.163187	-1.635353	10.960000
3.177439	-1.615976	11.114000
3.191430	-1.598968	11.160000
3.205628	-1.568054	11.207000
3.219993	-1.546472	11.253000
3.234209	-1.537074	11.300000
3.248140	-1.533797	11.346000
3.262022	-1.527773	11.392000
3.276029	-1.512134	11.439000
3.290323	-1.504270	11.485000
3.304435	-1.504955	11.531000
3.318446	-1.498417	11.577000
3.332701	-1.481435	11.623000
3.347343	-1.457439	11.670000
3.361084	-1.437879	11.716000
3.374856	-1.427945	11.763000
3.423512	-1.429122	11.809000
3.437461	-1.463965	11.967000
3.451875	-1.485050	12.013000
3.499050	-1.534467	12.059000
3.513470	-1.495634	12.214000
3.527381	-1.446846	12.260000
3.541184	-1.410444	12.307000
3.555272	-1.398170	12.353000
3.569147	-1.398264	12.399000
3.583604	-1.374343	12.445000
3.597522	-1.344147	12.491000
3.611850	-1.329506	12.537000
3.626088	-1.326067	12.583000
3.640803	-1.333057	12.630000
3.655261	-1.339913	12.677000
3.668629	-1.347017	12.722000
3.682858	-1.360208	12.769000
3.696746	-1.376213	12.816000
3.711280	-1.391189	12.862000
3.824651	-1.406680	12.907000
3.838728	-1.544286	13.279000
3.852639	-1.561582	13.325000
3.867241	-1.577741	13.372000
3.881801	-1.595087	13.418000
3.895745	-1.609734	13.465000
3.909674	-1.615649	13.511000
3.923968	-1.610502	13.556000
3.938328	-1.607816	13.603000
3.951493	-1.602449	13.650000
3.965686	-1.588083	13.696000
3.980320	-1.570309	13.742000
3.994626	-1.551800	13.789000
4.008844	-1.539859	13.835000
4.022875	-1.535361	13.882000
4.037349	-1.545162	13.927000
4.051526	-1.555573	13.974000
4.098507	-1.544181	14.020000
4.113128	-1.452005	14.175000
4.127307	-1.422089	14.222000
4.238953	-1.303070	14.268000
4.253027	-1.282442	14.635000
4.267017	-1.142191	14.681000
4.281939	-1.350105	14.728000
4.296267	-1.301118	14.774000
4.310236	-1.302596	14.821000
4.323937	-1.303467	14.867000
4.338091	-1.302293	14.914000
4.352311	-1.299775	14.960000
4.366556	-1.294386	15.006000
4.380460	-1.291347	15.052000
4.432196	-1.294072	15.099000
4.446007	-1.330449	15.267000
4.460069	-1.344103	15.313000
4.507715	-1.375277	15.359000
4.522554	-1.388426	15.514000
4.536430	-1.400387	15.560000
4.550196	-1.411075	15.607000
4.564380	-1.417686	15.653000
4.578815	-1.412074	15.699000
4.592432	-1.413557	15.746000
4.606675	-1.424705	15.791000
4.621257	-1.437450	15.838000
4.635679	-1.451480	15.884000
4.649558	-1.471945	15.931000
4.663414	-1.488476	15.977000
4.677187	-1.497355	16.023000
4.691936	-1.509338	16.069000
4.705711	-1.519678	16.116000
4.719294	-1.530779	16.162000
4.767545	-1.539239	16.208000
4.782114	-1.535297	16.367000
4.796026	-1.549317	16.413000
4.844010	-1.591974	16.459000
4.858342	-1.613426	16.614000
4.872589	-1.638447	16.660000
4.886271	-1.669494	16.707000
4.900055	-1.702462	16.753000
4.914711	-1.734490	16.800000
4.929080	-1.746466	16.846000
4.943617	-1.753399	16.892000
4.957380	-1.766757	16.939000
4.971340	-1.779255	16.985000
4.985551	-1.791037	17.031000
5.000059	-1.804575	17.078000
5.013689	-1.821610	17.124000
5.027159	-1.838995	17.170000
5.041813	-1.857418	17.216000
5.056138	-1.879273	17.261000
5.104696	-1.903665	17.308000
5.119026	-1.981699	17.466000
5.132732	-1.999734	17.513000
5.180108	-2.041509	17.558000
5.193893	-2.050014	17.714000
5.207518	-2.059212	17.760000
5.222692	-2.074803	17.807000
5.236646	-2.092763	17.854000
5.250735	-2.093666	17.900000
5.264976	-2.097429	17.945000
5.279743	-2.097313	17.992000
5.294110	-2.068659	18.038000
5.307334	-2.033069	18.084000
5.321579	-2.003467	18.131000
5.335714	-1.977796	18.177000
5.350006	-1.953472	18.224000
5.364059	-1.931968	18.270000
5.378405	-1.915447	18.316000
5.392644	-1.896761	18.363000
5.505309	-1.855115	18.409000
5.519831	-1.657516	18.779000
5.534120	-1.663862	18.825000
5.547756	-1.680156	18.871000
5.561669	-1.697272	18.917000
5.575494	-1.718496	18.962000
5.589183	-1.738316	19.008000
5.603498	-1.745437	19.053000
5.617164	-1.749051	19.099000
5.631141	-1.756238	19.145000
5.645719	-1.771501	19.191000
5.658810	-1.775820	19.237000
5.673072	-1.770479	19.283000
5.687119	-1.770911	19.330000
5.701720	-1.783532	19.376000
5.715585	-1.799751	19.423000
5.730041	-1.814035	19.469000
5.778021	-1.829576	19.515000
5.792035	-1.875753	19.671000
5.806647	-1.887857	19.718000
5.917830	-1.820484	19.764000
5.932629	-1.814202	20.130000
5.946472	-1.806507	20.177000
5.960097	-1.795671	20.224000
5.975025	-1.781967	20.270000
5.989386	-1.765758	20.316000
6.003614	-1.748761	20.363000
6.017243	-1.727169	20.409000
6.032034	-1.702725	20.455000
6.046077	-1.676175	20.501000
6.059984	-1.648271	20.548000
6.112407	-1.622403	20.594000
6.126358	-1.603760	20.767000
6.140735	-1.617989	20.814000
6.188612	-1.686093	20.860000
6.203023	-1.709467	21.015000
6.217242	-1.732065	21.061000
6.231411	-1.757086	21.108000
6.245085	-1.783353	21.154000
6.259331	-1.805761	21.200000
6.273803	-1.827525	21.247000
6.287672	-1.846267	21.294000
6.301704	-1.858267	21.340000
6.315951	-1.868014	21.386000
6.330553	-1.871440	21.432000
6.344976	-1.865450	21.479000
6.358981	-1.848411	21.526000
6.372330	-1.818203	21.572000
6.386652	-1.781660	21.618000
6.400813	-1.747290	21.664000
6.449091	-1.716166	21.710000
6.463584	-1.610103	21.867000
6.477800	-1.563648	21.913000
6.524689	-1.400713	21.960000
6.538182	-1.361877	22.114000
6.552321	-1.329318	22.160000
6.566407	-1.299105	22.206000
6.580779	-1.270279	22.253000
6.594810	-1.248845	22.299000
6.609268	-1.227630	22.346000
6.623823	-1.203024	22.392000
6.638060	-1.177573	22.439000
6.651375	-1.151326	22.484000
6.665822	-1.136111	22.531000
6.679701	-1.132733	22.577000
6.694142	-1.142107	22.623000
6.707962	-1.151076	22.669000
6.722677	-1.137947	22.716000
6.736739	-1.114666	22.762000
6.784857	-1.092012	22.808000
6.798907	-1.005799	22.966000
6.812772	-0.982370	23.012000
6.860130	-1.035510	23.058000
6.874486	-1.078750	23.213000
6.888605	-1.123737	23.259000
6.902888	-1.171658	23.306000
6.917476	-1.218774	23.352000
6.931691	-1.265757	23.399000
6.945456	-1.314466	23.445000
6.959563	-1.360059	23.491000
6.973485	-1.400470	23.537000
6.987966	-1.434388	23.584000
7.001853	-1.463858	23.630000
7.016190	-1.484259	23.676000
7.030560	-1.496029	23.723000
7.044789	-1.504817	23.769000
7.058833	-1.507140	23.816000
7.072733	-1.508054	23.862000
7.186198	-1.512291	23.909000
7.200436	-1.534740	24.279000
7.214775	-1.559903	24.326000
7.228795	-1.576401	24.372000
7.242595	-1.584327	24.419000
7.256597	-1.586235	24.465000
7.271159	-1.588050	24.512000
7.285345	-1.591415	24.557000
7.299126	-1.593187	24.603000
7.313151	-1.596952	24.649000
7.327355	-1.600694	24.694000
7.341148	-1.604576	24.740000
7.354467	-1.599330	24.786000
7.368556	-1.593680	24.832000
7.383009	-1.599425	24.878000
7.397771	-1.618091	24.925000
7.411867	-1.640177	24.970000
7.459416	-1.659456	25.017000
7.473110	-1.689596	25.172000
7.486959	-1.685591	25.219000
7.598718	-1.525616	25.265000
7.613421	-1.513563	25.632000
7.628197	-1.502136	25.678000
7.642322	-1.483556	25.725000
7.656387	-1.454947	25.771000
7.670166	-1.425547	25.817000
7.684566	-1.404989	25.864000
7.698875	-1.392083	25.910000
7.712575	-1.389856	25.956000
7.726539	-1.391222	26.003000
7.740808	-1.396855	26.049000
7.793381	-1.401848	26.095000
7.807754	-1.392273	26.267000
7.822054	-1.373615	26.313000
7.869249	-1.323560	26.360000
7.883141	-1.306466	26.514000
7.897457	-1.287623	26.561000
7.911449	-1.281846	26.607000
7.925976	-1.290704	26.653000
7.940029	-1.303456	26.700000
7.954146	-1.309110	26.746000
7.968354	-1.307409	26.792000
7.982956	-1.308625	26.838000
7.996458	-1.315098	26.885000
8.010161	-1.316230	26.931000
8.024259	-1.302063	26.978000
8.038834	-1.287791	27.024000
8.053169	-1.286343	27.070000
8.067535	-1.288291	27.117000
8.081562	-1.295538	27.163000
8.129729	-1.304201	27.210000
8.143649	-1.297784	27.367000
8.158204	-1.281740	27.413000
8.204966	-1.204386	27.459000
8.219807	-1.200462	27.614000
8.233722	-1.199478	27.661000
8.248026	-1.196373	27.707000
8.262063	-1.204667	27.754000
8.276795	-1.224256	27.800000
8.290671	-1.244259	27.846000
8.304355	-1.250060	27.893000
8.318105	-1.239962	27.938000
8.332924	-1.228541	27.985000
8.346568	-1.221319	28.030000
8.360976	-1.213634	28.076000
8.374947	-1.202643	28.123000
8.389322	-1.185027	28.168000
8.403440	-1.167790	28.215000
8.417236	-1.158331	28.261000
8.465640	-1.157805	28.308000
8.479222	-1.220387	28.467000
8.493616	-1.243201	28.513000
8.541413	-1.337884	28.560000
8.555478	-1.366868	28.714000
8.570168	-1.392459	28.760000
8.584205	-1.412367	28.806000
8.597544	-1.426514	28.852000
8.611467	-1.440368	28.898000
8.626189	-1.452466	28.945000
8.640099	-1.465657	28.991000
8.654181	-1.483963	29.036000
8.668025	-1.491689	29.084000
8.682635	-1.485930	29.130000
8.697230	-1.479276	29.176000
8.711480	-1.485720	29.223000
8.725152	-1.503071	29.269000
8.739347	-1.523535	29.316000
8.753096	-1.538514	29.362000
8.866774	-1.547005	29.408000
8.880523	-1.568953	29.779000
8.894450	-1.581924	29.825000
8.909046	-1.592223	29.871000
8.923308	-1.602897	29.917000
8.937692	-1.606534	29.964000
8.951959	-1.605412	30.010000
8.966012	-1.601358	30.057000
8.980327	-1.587441	30.103000
8.994123	-1.568085	30.149000
9.007891	-1.547435	30.196000
9.021869	-1.535781	30.242000
9.036630	-1.531723	30.288000
9.050453	-1.535654	30.333000
9.065276	-1.546851	30.380000
9.079201	-1.565985	30.427000
9.093394	-1.579755	30.473000
9.139927	-1.576942	30.519000
9.154295	-1.551506	30.674000
9.168378	-1.560082	30.721000
9.281018	-1.653273	30.767000
9.295175	-1.669461	31.134000
9.309052	-1.683564	31.180000
9.323756	-1.698047	31.227000
9.338014	-1.709067	31.273000
9.351592	-1.723644	31.319000
9.365790	-1.731488	31.365000
9.379408	-1.739498	31.412000
9.393838	-1.742614	31.458000
9.408183	-1.741608	31.504000
9.421902	-1.740223	31.550000
9.474258	-1.737223	31.597000
9.487815	-1.721967	31.767000
9.502572	-1.713117	31.813000
9.549372	-1.683399	31.859000
9.563631	-1.666778	32.014000
9.577857	-1.647622	32.060000
9.592146	-1.626712	32.106000
9.606196	-1.615513	32.153000
9.620413	-1.610384	32.199000
9.634138	-1.604177	32.246000
9.648215	-1.597539	32.292000
9.661980	-1.589455	32.338000
9.676720	-1.578349	32.384000
9.690893	-1.555814	32.431000
9.705091	-1.529149	32.477000
9.719100	-1.509705	32.524000
9.733810	-1.491764	32.570000
9.748017	-1.467203	32.616000
9.762041	-1.446749	32.662000
9.810259	-1.430098	32.709000
9.824046	-1.369233	32.867000
9.838099	-1.342022	32.913000
9.885491	-1.311774	32.960000
9.899942	-1.310021	33.114000
9.914251	-1.313103	33.160000
9.927979	-1.320392	33.206000
9.942218	-1.330303	33.253000
9.955419	-1.339050	33.299000
9.970283	-1.351123	33.345000
9.984843	-1.362528	33.391000
9.999058	-1.370842	33.438000
10.013288	-1.376696	33.484000
10.027516	-1.386261	33.531000
10.041529	-1.395741	33.577000
10.055710	-1.401331	33.623000
10.069814	-1.405326	33.670000
10.083347	-1.416109	33.716000
10.098438	-1.424201	33.762000
10.146180	-1.430192	33.809000
10.160336	-1.454211	33.967000
10.174351	-1.474841	34.013000
10.221991	-1.524880	34.059000
10.236302	-1.515695	34.214000
10.249799	-1.517618	34.260000
10.263940	-1.524785	34.306000
10.278492	-1.521739	34.352000
10.292235	-1.502199	34.399000
10.306614	-1.482136	34.445000
10.321232	-1.469388	34.492000
10.335374	-1.457543	34.538000
10.349107	-1.443720	34.584000
10.363026	-1.431915	34.631000
10.376764	-1.422006	34.677000
10.391190	-1.410674	34.722000
10.405047	-1.396939	34.769000
10.419207	-1.378597	34.816000
10.433564	-1.351682	34.862000
10.547125	-1.331731	34.907000
10.561456	-1.188433	35.279000
10.576057	-1.174330	35.326000
10.589972	-1.153619	35.372000
10.604447	-1.131367	35.419000
10.618598	-1.116907	35.465000
10.632958	-1.099663	35.511000
10.646369	-1.077600	35.558000
10.660695	-1.059262	35.604000
10.675016	-1.046166	35.650000
10.689254	-1.036233	35.697000
10.703378	-1.033155	35.742000
10.717342	-1.032428	35.789000
10.731767	-1.032147	35.835000
10.746009	-1.033165	35.882000
10.759626	-1.041026	35.928000
10.774054	-1.052798	35.974000
10.821220	-1.071663	36.020000
10.835061	-1.130509	36.176000
10.849471	-1.143764	36.222000
10.961784	-1.367078	36.268000
10.976710	-1.405526	36.635000
10.990523	-1.440379	36.682000
11.004188	-1.472719	36.728000
11.018383	-1.503965	36.775000
11.032532	-1.532983	36.821000
11.046236	-1.559641	36.867000
11.060715	-1.586736	36.913000
11.074473	-1.612073	36.959000
11.089377	-1.628578	37.006000
11.103640	-1.639137	37.052000
11.154607	-1.649896	37.099000
11.169210	-1.687255	37.267000
11.183138	-1.694302	37.313000
11.230359	-1.709647	37.360000
11.244657	-1.710933	37.514000
11.258752	-1.711521	37.560000
11.272618	-1.712896	37.607000
11.286690	-1.712780	37.652000
11.300686	-1.713159	37.698000
11.314933	-1.714133	37.744000
11.329323	-1.717372	37.791000
11.343672	-1.726267	37.838000
11.357569	-1.737360	37.884000
11.371750	-1.751014	37.930000
11.386667	-1.766452	37.976000
11.400311	-1.784562	38.023000
11.413885	-1.798560	38.069000
11.427639	-1.792128	38.115000
11.442452	-1.786052	38.161000
11.490789	-1.792928	38.207000
11.505086	-1.815030	38.367000
11.519467	-1.818593	38.413000
11.567067	-1.839379	38.460000
11.580745	-1.851541	38.614000
11.594478	-1.861987	38.661000
11.608998	-1.874067	38.707000
11.623491	-1.886868	38.753000
11.638288	-1.899334	38.800000
11.651954	-1.906133	38.846000
11.666076	-1.906555	38.893000
11.680250	-1.905568	38.939000
11.694670	-1.902454	38.984000
11.708521	-1.900501	39.031000
11.722669	-1.897472	39.078000
11.736218	-1.896527	39.124000
11.750473	-1.893565	39.171000
11.764853	-1.887500	39.217000
11.779037	-1.871063	39.264000
11.827620	-1.848199	39.310000
11.841879	-1.756079	39.467000
11.856161	-1.726935	39.513000
11.902535	-1.659046	39.560000
11.916883	-1.657862	39.714000
11.930781	-1.663399	39.761000
11.944941	-1.672587	39.807000
11.959281	-1.681845	39.854000
11.973613	-1.690863	39.898000
11.987650	-1.700522	39.945000
12.001906	-1.705564	39.992000
12.015719	-1.707420	40.039000
12.029939	-1.708145	40.085000
12.044225	-1.714238	40.131000
12.057791	-1.717846	40.177000
12.072239	-1.725437	40.224000
12.086791	-1.730155	40.270000
12.101180	-1.730838	40.316000
12.115456	-1.726643	40.362000
12.228491	-1.721053	40.408000
12.242510	-1.781850	40.779000
12.256694	-1.783143	40.825000
12.270944	-1.779486	40.872000
12.284225	-1.773146	40.918000
12.298194	-1.764485	40.964000
12.312943	-1.755190	41.011000
12.327566	-1.744594	41.057000
12.341616	-1.736626	41.104000
12.355612	-1.726088	41.150000
12.369826	-1.710882	41.196000
12.384269	-1.692907	41.243000
12.398415	-1.673948	41.289000
12.412082	-1.664334	41.335000
12.425666	-1.658724	41.381000
12.440030	-1.651729	41.427000
12.454398	-1.627004	41.474000
12.502833	-1.594382	41.520000
12.516809	-1.532111	41.676000
12.530796	-1.521255	41.721000
12.642893	-1.452602	41.767000
12.656708	-1.437749	42.135000
12.670674	-1.421331	42.182000
12.684926	-1.402507	42.228000
12.698931	-1.383926	42.273000
12.712691	-1.364334	42.320000
12.727578	-1.345132	42.366000
12.741436	-1.329840	42.413000
12.755658	-1.317087	42.459000
12.769882	-1.304516	42.505000
12.783768	-1.296293	42.552000
12.835705	-1.287274	42.597000
12.850082	-1.246326	42.767000
